 => TITLE: 
 => Data file name: C:\Users\stefano\Nextcloud2\uni\master-thesis\XRD\data\G104\G104--5-40-0.01-1000ms.xy
 => Instrm        :    1
 => Lambda(1&2)   :   1.54060  1.54060
 => Numb.of.points:      2951
 => Numb.of.peaks :         7
    2Theta     Yobs     Ycalc  Yobs-Ycal    Backg    Bragg     Posr  Intensity   FWHM    Eta
    6.0086     23.60     24.81    -29.86     20.00   18.6223     -3.49     150.43  0.7285  0.6150
    6.0187     23.41     24.82    -30.05     20.00   20.5794     -3.49      27.18  0.6473  0.6150
    6.0289     23.25     24.82    -30.22     20.00   22.5013     -3.49     109.01  1.0033  0.6150
    6.0391     23.54     24.83    -29.94     20.00   28.5130     -3.49      66.04  1.4267  0.6150
    6.0492     23.79     24.84    -29.69     20.00   30.0909     -3.49      29.69  2.8568  0.6150
    6.0594     23.55     24.84    -29.94     20.00   33.2498     -3.49      21.22  2.8568  0.6150
    6.0696     23.67     24.85    -29.83     20.00   19.5955     -3.49    1100.40  8.6949  0.6150
    6.0797     23.54     24.86    -29.96     20.00
    6.0899     23.49     24.87    -30.02     20.00
    6.1001     23.78     24.87    -29.74     20.00
    6.1102     23.43     24.88    -30.10     20.00
    6.1204     23.30     24.89    -30.23     20.00
    6.1306     23.27     24.89    -30.27     20.00
    6.1407     23.95     24.90    -29.60     20.00
    6.1509     22.48     24.91    -31.08     20.00
    6.1611     23.28     24.92    -30.28     20.00
    6.1712     23.31     24.92    -30.26     20.00
    6.1814     23.02     24.93    -30.56     20.00
    6.1915     23.37     24.94    -30.21     20.00
    6.2017     23.00     24.95    -30.59     20.00
    6.2119     22.69     24.95    -30.91     20.00
    6.2220     23.25     24.96    -30.36     20.00
    6.2322     22.74     24.97    -30.87     20.00
    6.2424     23.20     24.98    -30.42     20.00
    6.2525     23.38     24.98    -30.25     20.00
    6.2627     22.68     24.99    -30.96     20.00
    6.2729     23.12     25.00    -30.52     20.00
    6.2830     22.99     25.00    -30.66     20.00
    6.2932     22.10     25.01    -31.56     20.00
    6.3034     22.79     25.02    -30.88     20.00
    6.3135     21.96     25.03    -31.71     20.00
    6.3237     23.51     25.03    -30.17     20.00
    6.3338     23.04     25.04    -30.65     20.00
    6.3440     22.06     25.05    -31.64     20.00
    6.3542     22.32     25.06    -31.38     20.00
    6.3643     22.34     25.07    -31.37     20.00
    6.3745     21.66     25.07    -32.06     20.00
    6.3847     22.23     25.08    -31.50     20.00
    6.3948     23.51     25.09    -30.22     20.00
    6.4050     22.71     25.10    -31.03     20.00
    6.4152     22.62     25.10    -31.13     20.00
    6.4253     22.40     25.11    -31.36     20.00
    6.4355     22.89     25.12    -30.88     20.00
    6.4457     22.93     25.13    -30.84     20.00
    6.4558     23.21     25.14    -30.57     20.00
    6.4660     23.37     25.14    -30.42     20.00
    6.4762     22.77     25.15    -31.03     20.00
    6.4863     23.15     25.16    -30.65     20.00
    6.4965     23.40     25.17    -30.41     20.00
    6.5066     22.84     25.17    -30.98     20.00
    6.5168     22.55     25.18    -31.28     20.00
    6.5270     23.10     25.19    -30.74     20.00
    6.5371     22.46     25.20    -31.38     20.00
    6.5473     23.01     25.21    -30.84     20.00
    6.5575     23.58     25.21    -30.28     20.00
    6.5676     23.68     25.22    -30.19     20.00
    6.5778     22.99     25.23    -30.89     20.00
    6.5880     23.52     25.24    -30.36     20.00
    6.5981     22.86     25.25    -31.03     20.00
    6.6083     23.83     25.26    -30.07     20.00
    6.6185     23.23     25.26    -30.68     20.00
    6.6286     22.68     25.27    -31.24     20.00
    6.6388     22.76     25.28    -31.17     20.00
    6.6489     24.25     25.29    -29.68     20.00
    6.6591     21.93     25.30    -32.01     20.00
    6.6693     23.70     25.30    -30.25     20.00
    6.6794     23.09     25.31    -30.87     20.00
    6.6896     23.21     25.32    -30.76     20.00
    6.6998     23.22     25.33    -30.76     20.00
    6.7099     22.89     25.34    -31.09     20.00
    6.7201     22.51     25.35    -31.48     20.00
    6.7303     23.02     25.35    -30.98     20.00
    6.7404     23.95     25.36    -30.06     20.00
    6.7506     23.16     25.37    -30.86     20.00
    6.7608     23.13     25.38    -30.90     20.00
    6.7709     23.45     25.39    -30.58     20.00
    6.7811     22.51     25.40    -31.53     20.00
    6.7913     23.44     25.41    -30.61     20.00
    6.8014     23.28     25.41    -30.78     20.00
    6.8116     23.37     25.42    -30.70     20.00
    6.8217     23.51     25.43    -30.57     20.00
    6.8319     23.16     25.44    -30.93     20.00
    6.8421     23.68     25.45    -30.42     20.00
    6.8522     23.41     25.46    -30.69     20.00
    6.8624     23.48     25.47    -30.63     20.00
    6.8726     23.49     25.48    -30.63     20.00
    6.8827     23.55     25.48    -30.58     20.00
    6.8929     23.96     25.49    -30.18     20.00
    6.9031     22.62     25.50    -31.53     20.00
    6.9132     23.60     25.51    -30.56     20.00
    6.9234     23.67     25.52    -30.50     20.00
    6.9336     23.63     25.53    -30.54     20.00
    6.9437     23.46     25.54    -30.72     20.00
    6.9539     23.03     25.55    -31.16     20.00
    6.9640     23.46     25.56    -30.74     20.00
    6.9742     23.13     25.56    -31.08     20.00
    6.9844     23.80     25.57    -30.42     20.00
    6.9945     23.62     25.58    -30.61     20.00
    7.0047     24.31     25.59    -29.93     20.00
    7.0149     23.77     25.60    -30.48     20.00
    7.0250     22.82     25.61    -31.44     20.00
    7.0352     23.93     25.62    -30.34     20.00
    7.0454     24.55     25.63    -29.73     20.00
    7.0555     23.20     25.64    -31.08     20.00
    7.0657     23.62     25.65    -30.67     20.00
    7.0759     23.21     25.66    -31.09     20.00
    7.0860     23.88     25.67    -30.43     20.00
    7.0962     23.84     25.68    -30.48     20.00
    7.1064     24.13     25.69    -30.20     20.00
    7.1165     22.98     25.69    -31.36     20.00
    7.1267     23.36     25.70    -30.99     20.00
    7.1368     23.99     25.71    -30.37     20.00
    7.1470     24.07     25.72    -30.30     20.00
    7.1572     24.01     25.73    -30.37     20.00
    7.1673     23.85     25.74    -30.54     20.00
    7.1775     24.07     25.75    -30.33     20.00
    7.1877     23.90     25.76    -30.51     20.00
    7.1978     24.39     25.77    -30.03     20.00
    7.2080     23.79     25.78    -30.64     20.00
    7.2182     24.65     25.79    -29.79     20.00
    7.2283     24.55     25.80    -29.90     20.00
    7.2385     23.64     25.81    -30.82     20.00
    7.2487     24.02     25.82    -30.45     20.00
    7.2588     24.35     25.83    -30.13     20.00
    7.2690     23.89     25.84    -30.60     20.00
    7.2791     24.11     25.85    -30.39     20.00
    7.2893     24.65     25.86    -29.86     20.00
    7.2995     24.40     25.87    -30.12     20.00
    7.3096     24.88     25.88    -29.65     20.00
    7.3198     24.90     25.89    -29.64     20.00
    7.3300     24.02     25.90    -30.53     20.00
    7.3401     24.05     25.91    -30.51     20.00
    7.3503     24.12     25.92    -30.45     20.00
    7.3605     23.71     25.93    -30.87     20.00
    7.3706     24.74     25.94    -29.85     20.00
    7.3808     24.70     25.95    -29.90     20.00
    7.3910     24.96     25.96    -29.65     20.00
    7.4011     25.19     25.97    -29.43     20.00
    7.4113     24.19     25.98    -30.44     20.00
    7.4215     23.45     25.99    -31.19     20.00
    7.4316     24.29     26.00    -30.36     20.00
    7.4418     24.35     26.01    -30.31     20.00
    7.4519     24.47     26.02    -30.20     20.00
    7.4621     24.63     26.03    -30.05     20.00
    7.4723     23.88     26.04    -30.81     20.00
    7.4824     24.43     26.05    -30.27     20.00
    7.4926     23.68     26.07    -31.03     20.00
    7.5028     25.14     26.08    -29.58     20.00
    7.5129     24.62     26.09    -30.11     20.00
    7.5231     24.68     26.10    -30.06     20.00
    7.5333     25.57     26.11    -29.18     20.00
    7.5434     24.26     26.12    -30.50     20.00
    7.5536     24.76     26.13    -30.02     20.00
    7.5638     25.20     26.14    -29.59     20.00
    7.5739     24.80     26.15    -30.00     20.00
    7.5841     24.47     26.16    -30.34     20.00
    7.5942     24.30     26.17    -30.52     20.00
    7.6044     24.58     26.18    -30.25     20.00
    7.6146     25.42     26.20    -29.42     20.00
    7.6247     25.45     26.21    -29.40     20.00
    7.6349     24.28     26.22    -30.58     20.00
    7.6451     24.87     26.23    -30.00     20.00
    7.6552     25.31     26.24    -29.58     20.00
    7.6654     25.45     26.25    -29.45     20.00
    7.6756     25.01     26.26    -29.90     20.00
    7.6857     25.34     26.27    -29.58     20.00
    7.6959     24.54     26.28    -30.39     20.00
    7.7061     24.60     26.30    -30.34     20.00
    7.7162     25.60     26.31    -29.35     20.00
    7.7264     25.27     26.32    -29.70     20.00
    7.7365     25.77     26.33    -29.21     20.00
    7.7467     24.91     26.34    -30.08     20.00
    7.7569     24.46     26.35    -30.54     20.00
    7.7670     25.01     26.37    -30.00     20.00
    7.7772     25.35     26.38    -29.67     20.00
    7.7874     25.46     26.39    -29.57     20.00
    7.7975     25.00     26.40    -30.05     20.00
    7.8077     25.01     26.41    -30.05     20.00
    7.8179     24.61     26.42    -30.46     20.00
    7.8280     25.48     26.44    -29.60     20.00
    7.8382     26.05     26.45    -29.04     20.00
    7.8484     25.49     26.46    -29.62     20.00
    7.8585     24.94     26.47    -30.18     20.00
    7.8687     25.88     26.48    -29.25     20.00
    7.8789     25.60     26.50    -29.54     20.00
    7.8890     24.87     26.51    -30.28     20.00
    7.8992     25.20     26.52    -29.97     20.00
    7.9093     25.05     26.53    -30.13     20.00
    7.9195     25.35     26.54    -29.84     20.00
    7.9297     25.74     26.56    -29.46     20.00
    7.9398     26.48     26.57    -28.73     20.00
    7.9500     25.94     26.58    -29.29     20.00
    7.9602     26.41     26.59    -28.83     20.00
    7.9703     25.89     26.61    -29.36     20.00
    7.9805     25.57     26.62    -29.69     20.00
    7.9907     26.16     26.63    -29.12     20.00
    8.0008     26.47     26.64    -28.82     20.00
    8.0110     25.49     26.66    -29.81     20.00
    8.0212     26.33     26.67    -28.98     20.00
    8.0313     25.80     26.68    -29.53     20.00
    8.0415     26.12     26.69    -29.22     20.00
    8.0516     26.15     26.71    -29.20     20.00
    8.0618     25.54     26.72    -29.83     20.00
    8.0720     25.94     26.73    -29.44     20.00
    8.0821     26.38     26.74    -29.01     20.00
    8.0923     25.61     26.76    -29.79     20.00
    8.1025     25.93     26.77    -29.49     20.00
    8.1126     26.69     26.78    -28.74     20.00
    8.1228     25.91     26.80    -29.53     20.00
    8.1330     25.71     26.81    -29.75     20.00
    8.1431     26.18     26.82    -29.29     20.00
    8.1533     26.55     26.84    -28.93     20.00
    8.1635     26.01     26.85    -29.49     20.00
    8.1736     26.91     26.86    -28.60     20.00
    8.1838     26.16     26.88    -29.36     20.00
    8.1940     27.05     26.89    -28.49     20.00
    8.2041     26.32     26.90    -29.23     20.00
    8.2143     26.63     26.92    -28.93     20.00
    8.2244     26.05     26.93    -29.53     20.00
    8.2346     26.77     26.94    -28.82     20.00
    8.2448     26.40     26.96    -29.20     20.00
    8.2549     26.87     26.97    -28.75     20.00
    8.2651     26.87     26.98    -28.76     20.00
    8.2753     26.43     27.00    -29.21     20.00
    8.2854     27.32     27.01    -28.34     20.00
    8.2956     26.66     27.03    -29.01     20.00
    8.3058     27.37     27.04    -28.32     20.00
    8.3159     26.56     27.05    -29.14     20.00
    8.3261     27.23     27.07    -28.48     20.00
    8.3363     25.96     27.08    -29.77     20.00
    8.3464     26.57     27.10    -29.17     20.00
    8.3566     28.00     27.11    -27.76     20.00
    8.3667     26.66     27.13    -29.11     20.00
    8.3769     27.59     27.14    -28.20     20.00
    8.3871     26.79     27.15    -29.01     20.00
    8.3972     26.50     27.17    -29.31     20.00
    8.4074     25.93     27.18    -29.90     20.00
    8.4176     26.72     27.20    -29.12     20.00
    8.4277     26.70     27.21    -29.16     20.00
    8.4379     26.48     27.23    -29.39     20.00
    8.4481     26.86     27.24    -29.03     20.00
    8.4582     27.38     27.26    -28.52     20.00
    8.4684     27.61     27.27    -28.31     20.00
    8.4786     26.89     27.29    -29.04     20.00
    8.4887     27.12     27.30    -28.83     20.00
    8.4989     27.20     27.32    -28.76     20.00
    8.5091     27.77     27.33    -28.21     20.00
    8.5192     27.77     27.35    -28.22     20.00
    8.5294     27.40     27.36    -28.61     20.00
    8.5395     27.50     27.38    -28.52     20.00
    8.5497     27.46     27.39    -28.58     20.00
    8.5599     27.21     27.41    -28.84     20.00
    8.5700     27.51     27.42    -28.56     20.00
    8.5802     27.22     27.44    -28.86     20.00
    8.5904     27.51     27.45    -28.59     20.00
    8.6005     27.16     27.47    -28.95     20.00
    8.6107     28.41     27.48    -27.72     20.00
    8.6209     27.69     27.50    -28.45     20.00
    8.6310     28.67     27.51    -27.49     20.00
    8.6412     27.99     27.53    -28.19     20.00
    8.6514     28.02     27.55    -28.17     20.00
    8.6615     27.35     27.56    -28.86     20.00
    8.6717     27.02     27.58    -29.20     20.00
    8.6818     27.21     27.59    -29.03     20.00
    8.6920     28.35     27.61    -27.91     20.00
    8.7022     28.76     27.63    -27.51     20.00
    8.7123     28.36     27.64    -27.93     20.00
    8.7225     28.98     27.66    -27.32     20.00
    8.7327     27.15     27.67    -29.17     20.00
    8.7428     28.61     27.69    -27.73     20.00
    8.7530     28.42     27.71    -27.93     20.00
    8.7632     26.96     27.72    -29.41     20.00
    8.7733     27.76     27.74    -28.63     20.00
    8.7835     28.38     27.76    -28.02     20.00
    8.7937     28.68     27.77    -27.74     20.00
    8.8038     28.60     27.79    -27.84     20.00
    8.8140     28.10     27.81    -28.35     20.00
    8.8242     28.35     27.82    -28.12     20.00
    8.8343     28.54     27.84    -27.95     20.00
    8.8445     27.81     27.86    -28.69     20.00
    8.8546     28.79     27.87    -27.73     20.00
    8.8648     28.42     27.89    -28.12     20.00
    8.8750     28.08     27.91    -28.48     20.00
    8.8851     28.74     27.93    -27.83     20.00
    8.8953     28.77     27.94    -27.82     20.00
    8.9055     28.88     27.96    -27.73     20.00
    8.9156     27.57     27.98    -29.05     20.00
    8.9258     28.27     28.00    -28.37     20.00
    8.9360     28.48     28.01    -28.18     20.00
    8.9461     29.63     28.03    -27.05     20.00
    8.9563     29.03     28.05    -27.66     20.00
    8.9665     29.15     28.07    -27.56     20.00
    8.9766     28.89     28.08    -27.84     20.00
    8.9868     29.22     28.10    -27.53     20.00
    8.9969     29.03     28.12    -27.74     20.00
    9.0071     28.09     28.14    -28.69     20.00
    9.0173     28.76     28.16    -28.04     20.00
    9.0274     28.91     28.17    -27.91     20.00
    9.0376     28.50     28.19    -28.34     20.00
    9.0478     28.64     28.21    -28.22     20.00
    9.0579     29.30     28.23    -27.58     20.00
    9.0681     28.38     28.25    -28.51     20.00
    9.0783     29.18     28.27    -27.73     20.00
    9.0884     29.15     28.28    -27.78     20.00
    9.0986     28.21     28.30    -28.74     20.00
    9.1088     29.42     28.32    -27.55     20.00
    9.1189     28.60     28.34    -28.39     20.00
    9.1291     28.55     28.36    -28.46     20.00
    9.1393     29.68     28.38    -27.35     20.00
    9.1494     29.22     28.40    -27.82     20.00
    9.1596     28.79     28.42    -28.27     20.00
    9.1697     29.15     28.44    -27.93     20.00
    9.1799     29.03     28.46    -28.07     20.00
    9.1901     28.66     28.48    -28.46     20.00
    9.2002     29.40     28.49    -27.74     20.00
    9.2104     28.38     28.51    -28.78     20.00
    9.2206     28.71     28.53    -28.47     20.00
    9.2307     29.26     28.55    -27.94     20.00
    9.2409     29.65     28.57    -27.57     20.00
    9.2511     29.79     28.59    -27.45     20.00
    9.2612     29.62     28.61    -27.64     20.00
    9.2714     29.78     28.63    -27.50     20.00
    9.2816     29.32     28.65    -27.98     20.00
    9.2917     30.18     28.67    -27.14     20.00
    9.3019     30.23     28.69    -27.11     20.00
    9.3120     29.87     28.71    -27.49     20.00
    9.3222     29.48     28.73    -27.90     20.00
    9.3324     29.84     28.75    -27.56     20.00
    9.3425     29.73     28.77    -27.69     20.00
    9.3527     29.38     28.79    -28.06     20.00
    9.3629     29.01     28.82    -28.45     20.00
    9.3730     30.04     28.84    -27.44     20.00
    9.3832     30.08     28.86    -27.42     20.00
    9.3934     30.00     28.88    -27.52     20.00
    9.4035     29.50     28.90    -28.04     20.00
    9.4137     29.88     28.92    -27.69     20.00
    9.4239     30.76     28.94    -26.83     20.00
    9.4340     29.62     28.96    -27.99     20.00
    9.4442     29.70     28.98    -27.93     20.00
    9.4544     30.41     29.01    -27.24     20.00
    9.4645     30.09     29.03    -27.58     20.00
    9.4747     30.84     29.05    -26.85     20.00
    9.4848     29.92     29.07    -27.80     20.00
    9.4950     29.40     29.09    -28.34     20.00
    9.5052     29.93     29.11    -27.83     20.00
    9.5153     30.23     29.14    -27.55     20.00
    9.5255     29.82     29.16    -27.98     20.00
    9.5357     30.20     29.18    -27.63     20.00
    9.5458     30.37     29.20    -27.48     20.00
    9.5560     30.03     29.22    -27.84     20.00
    9.5662     29.97     29.25    -27.92     20.00
    9.5763     30.07     29.27    -27.84     20.00
    9.5865     29.65     29.29    -28.29     20.00
    9.5967     30.38     29.31    -27.58     20.00
    9.6068     30.79     29.34    -27.19     20.00
    9.6170     30.41     29.36    -27.60     20.00
    9.6271     30.26     29.38    -27.77     20.00
    9.6373     31.10     29.41    -26.95     20.00
    9.6475     30.90     29.43    -27.17     20.00
    9.6576     30.32     29.45    -27.78     20.00
    9.6678     30.57     29.47    -27.55     20.00
    9.6780     30.38     29.50    -27.76     20.00
    9.6881     30.35     29.52    -27.82     20.00
    9.6983     30.73     29.55    -27.46     20.00
    9.7085     30.54     29.57    -27.68     20.00
    9.7186     30.50     29.59    -27.74     20.00
    9.7288     31.07     29.62    -27.19     20.00
    9.7390     31.04     29.64    -27.25     20.00
    9.7491     31.06     29.66    -27.25     20.00
    9.7593     30.89     29.69    -27.44     20.00
    9.7694     30.52     29.71    -27.84     20.00
