 => TITLE: 
 => Data file name: C:\Users\stefano\Nextcloud2\projects\programming\python\xrd-winplotr\folder\G109\G109--5-40-0.01-1000ms.xy
 => Instrm        :    1
 => Lambda(1&2)   :   1.54060  1.54060
 => Numb.of.points:      2946
 => Numb.of.peaks :         8
    2Theta     Yobs     Ycalc  Yobs-Ycal    Backg    Bragg     Posr  Intensity   FWHM    Eta
    6.1001     23.37     23.67    -26.94     18.74   18.6038     -2.17     175.86  0.8343  0.5000
    6.1102     23.27     23.68    -27.04     18.74   20.4241     -2.17     111.84  1.6501  0.5000
    6.1204     23.74     23.69    -26.58     18.74   22.4676     -2.17     132.17  1.1450  0.5000
    6.1306     23.32     23.70    -27.01     18.74   28.4983     -2.17      49.37  1.1521  0.5000
    6.1407     23.32     23.70    -27.02     18.74   30.1431     -2.17      23.01  2.1221  0.5000
    6.1509     23.43     23.71    -26.92     18.74   33.3281     -2.17      35.58  3.2452  0.5000
    6.1611     23.74     23.72    -26.62     18.74   17.1418     -2.17      75.91  2.2452  0.5000
    6.1712     23.07     23.73    -27.30     18.74   20.1702     -2.17     921.88 12.0577  0.5000
    6.1814     23.51     23.74    -26.87     18.73
    6.1915     23.82     23.75    -26.57     18.73
    6.2017     23.46     23.76    -26.93     18.73
    6.2119     23.48     23.77    -26.92     18.73
    6.2220     22.71     23.78    -27.70     18.73
    6.2322     22.30     23.79    -28.12     18.73
    6.2424     22.59     23.79    -27.84     18.73
    6.2525     23.72     23.80    -26.72     18.73
    6.2627     22.76     23.81    -27.69     18.73
    6.2729     23.11     23.82    -27.35     18.73
    6.2830     23.68     23.83    -26.79     18.73
    6.2932     23.45     23.84    -27.03     18.73
    6.3034     23.94     23.85    -26.55     18.72
    6.3135     23.26     23.86    -27.24     18.72
    6.3237     23.54     23.87    -26.97     18.72
    6.3338     23.20     23.88    -27.31     18.72
    6.3440     23.09     23.89    -27.43     18.72
    6.3542     23.37     23.90    -27.16     18.72
    6.3643     23.68     23.91    -26.86     18.72
    6.3745     22.82     23.92    -27.73     18.72
    6.3847     23.05     23.93    -27.51     18.72
    6.3948     23.02     23.94    -27.55     18.72
    6.4050     23.20     23.95    -27.38     18.72
    6.4152     22.73     23.96    -27.86     18.72
    6.4253     23.34     23.97    -27.26     18.71
    6.4355     23.07     23.98    -27.54     18.71
    6.4457     23.01     23.99    -27.61     18.71
    6.4558     23.56     23.99    -27.07     18.71
    6.4660     22.82     24.00    -27.82     18.71
    6.4762     22.78     24.01    -27.87     18.71
    6.4863     22.82     24.02    -27.84     18.71
    6.4965     23.57     24.03    -27.10     18.71
    6.5066     23.40     24.04    -27.28     18.71
    6.5168     23.19     24.05    -27.50     18.71
    6.5270     23.27     24.07    -27.43     18.71
    6.5371     23.17     24.08    -27.54     18.71
    6.5473     23.18     24.09    -27.54     18.70
    6.5575     23.58     24.10    -27.15     18.70
    6.5676     22.87     24.11    -27.87     18.70
    6.5778     22.98     24.12    -27.77     18.70
    6.5880     23.36     24.13    -27.40     18.70
    6.5981     22.32     24.14    -28.45     18.70
    6.6083     23.67     24.15    -27.11     18.70
    6.6185     23.23     24.16    -27.56     18.70
    6.6286     23.06     24.17    -27.74     18.70
    6.6388     23.57     24.18    -27.24     18.70
    6.6489     23.18     24.19    -27.65     18.70
    6.6591     23.32     24.20    -27.52     18.70
    6.6693     23.27     24.21    -27.58     18.69
    6.6794     23.01     24.22    -27.85     18.69
    6.6896     22.98     24.23    -27.89     18.69
    6.6998     22.93     24.24    -27.95     18.69
    6.7099     23.57     24.25    -27.32     18.69
    6.7201     22.88     24.26    -28.02     18.69
    6.7303     23.83     24.27    -27.08     18.69
    6.7404     23.37     24.29    -27.55     18.69
    6.7506     23.99     24.30    -26.94     18.69
    6.7608     23.32     24.31    -27.62     18.69
    6.7709     23.54     24.32    -27.41     18.69
    6.7811     22.93     24.33    -28.04     18.69
    6.7913     23.21     24.34    -27.77     18.68
    6.8014     23.56     24.35    -27.43     18.68
    6.8116     22.84     24.36    -28.16     18.68
    6.8217     22.93     24.37    -28.08     18.68
    6.8319     24.07     24.39    -26.95     18.68
    6.8421     23.24     24.40    -27.79     18.68
    6.8522     22.91     24.41    -28.13     18.68
    6.8624     23.30     24.42    -27.75     18.68
    6.8726     23.34     24.43    -27.73     18.68
    6.8827     23.11     24.44    -27.97     18.68
    6.8929     24.01     24.45    -27.08     18.68
    6.9031     23.16     24.46    -27.94     18.68
    6.9132     24.68     24.48    -26.43     18.67
    6.9234     22.57     24.49    -28.55     18.67
    6.9336     23.16     24.50    -27.98     18.67
    6.9437     23.23     24.51    -27.92     18.67
    6.9539     23.60     24.52    -27.56     18.67
    6.9640     23.40     24.53    -27.77     18.67
    6.9742     24.40     24.55    -26.78     18.67
    6.9844     24.56     24.56    -26.63     18.67
    6.9945     23.62     24.57    -27.59     18.67
    7.0047     23.62     24.58    -27.60     18.67
    7.0149     24.60     24.59    -26.63     18.67
    7.0250     23.36     24.61    -27.88     18.66
    7.0352     24.16     24.62    -27.09     18.66
    7.0454     23.89     24.63    -27.38     18.66
    7.0555     24.01     24.64    -27.27     18.66
    7.0657     23.23     24.65    -28.06     18.66
    7.0759     23.46     24.67    -27.84     18.66
    7.0860     23.52     24.68    -27.79     18.66
    7.0962     24.30     24.69    -27.03     18.66
    7.1064     24.47     24.70    -26.87     18.66
    7.1165     23.27     24.71    -28.08     18.66
    7.1267     23.59     24.73    -27.77     18.66
    7.1368     24.96     24.74    -26.42     18.66
    7.1470     23.48     24.75    -27.91     18.65
    7.1572     23.88     24.76    -27.52     18.65
    7.1673     23.84     24.78    -27.57     18.65
    7.1775     23.70     24.79    -27.73     18.65
    7.1877     23.81     24.80    -27.63     18.65
    7.1978     24.24     24.81    -27.21     18.65
    7.2080     24.14     24.83    -27.32     18.65
    7.2182     23.96     24.84    -27.52     18.65
    7.2283     24.28     24.85    -27.21     18.65
    7.2385     23.18     24.87    -28.32     18.65
    7.2487     24.39     24.88    -27.12     18.65
    7.2588     24.84     24.89    -26.69     18.65
    7.2690     24.45     24.90    -27.09     18.64
    7.2791     24.11     24.92    -27.44     18.64
    7.2893     24.26     24.93    -27.31     18.64
    7.2995     23.08     24.94    -28.50     18.64
    7.3096     24.50     24.96    -27.09     18.64
    7.3198     24.51     24.97    -27.10     18.64
    7.3300     23.84     24.98    -27.78     18.64
    7.3401     24.83     25.00    -26.80     18.64
    7.3503     25.02     25.01    -26.63     18.64
    7.3605     23.55     25.02    -28.11     18.64
    7.3706     24.82     25.04    -26.85     18.64
    7.3808     24.80     25.05    -26.89     18.64
    7.3910     24.67     25.06    -27.03     18.63
    7.4011     24.03     25.08    -27.68     18.63
    7.4113     25.22     25.09    -26.51     18.63
    7.4215     24.45     25.10    -27.29     18.63
    7.4316     24.07     25.12    -27.68     18.63
    7.4418     23.93     25.13    -27.84     18.63
    7.4519     24.24     25.15    -27.54     18.63
    7.4621     24.63     25.16    -27.17     18.63
    7.4723     23.95     25.17    -27.86     18.63
    7.4824     25.19     25.19    -26.63     18.63
    7.4926     24.51     25.20    -27.33     18.63
    7.5028     25.25     25.22    -26.60     18.63
    7.5129     25.15     25.23    -26.72     18.62
    7.5231     25.54     25.24    -26.34     18.62
    7.5333     24.73     25.26    -27.16     18.62
    7.5434     24.52     25.27    -27.39     18.62
    7.5536     24.88     25.29    -27.04     18.62
    7.5638     25.63     25.30    -26.31     18.62
    7.5739     25.44     25.31    -26.51     18.62
    7.5841     25.05     25.33    -26.91     18.62
    7.5942     25.15     25.34    -26.83     18.62
    7.6044     25.15     25.36    -26.84     18.62
    7.6146     24.87     25.37    -27.14     18.62
    7.6247     25.65     25.39    -26.37     18.62
    7.6349     24.97     25.40    -27.07     18.61
    7.6451     24.62     25.42    -27.43     18.61
    7.6552     24.60     25.43    -27.47     18.61
    7.6654     25.07     25.45    -27.01     18.61
    7.6756     24.87     25.46    -27.23     18.61
    7.6857     24.01     25.48    -28.10     18.61
    7.6959     25.01     25.49    -27.12     18.61
    7.7061     25.11     25.51    -27.03     18.61
    7.7162     25.22     25.52    -26.94     18.61
    7.7264     24.79     25.54    -27.38     18.61
    7.7365     25.11     25.55    -27.08     18.61
    7.7467     25.46     25.57    -26.74     18.61
    7.7569     25.16     25.58    -27.06     18.60
    7.7670     25.05     25.60    -27.18     18.60
    7.7772     25.48     25.61    -26.77     18.60
    7.7874     24.48     25.63    -27.78     18.60
    7.7975     24.96     25.64    -27.32     18.60
    7.8077     25.23     25.66    -27.06     18.60
    7.8179     25.54     25.67    -26.77     18.60
    7.8280     24.94     25.69    -27.38     18.60
    7.8382     25.87     25.70    -26.47     18.60
    7.8484     25.08     25.72    -27.28     18.60
    7.8585     25.62     25.74    -26.75     18.60
    7.8687     25.20     25.75    -27.19     18.60
    7.8789     25.75     25.77    -26.65     18.59
    7.8890     25.70     25.78    -26.72     18.59
    7.8992     25.41     25.80    -27.02     18.59
    7.9093     25.83     25.81    -26.62     18.59
    7.9195     25.76     25.83    -26.71     18.59
    7.9297     25.78     25.85    -26.70     18.59
    7.9398     25.67     25.86    -26.83     18.59
    7.9500     26.50     25.88    -26.01     18.59
    7.9602     25.79     25.90    -26.74     18.59
    7.9703     26.16     25.91    -26.39     18.59
    7.9805     25.71     25.93    -26.85     18.59
    7.9907     26.70     25.94    -25.88     18.59
    8.0008     25.79     25.96    -26.81     18.58
    8.0110     25.24     25.98    -27.37     18.58
    8.0212     26.76     25.99    -25.87     18.58
    8.0313     26.51     26.01    -26.14     18.58
    8.0415     26.13     26.03    -26.53     18.58
    8.0516     26.47     26.04    -26.21     18.58
    8.0618     26.25     26.06    -26.45     18.58
    8.0720     27.31     26.08    -25.40     18.58
    8.0821     25.99     26.09    -26.74     18.58
    8.0923     26.10     26.11    -26.65     18.58
    8.1025     25.91     26.13    -26.85     18.58
    8.1126     26.33     26.14    -26.45     18.58
    8.1228     26.52     26.16    -26.28     18.57
    8.1330     25.82     26.18    -27.00     18.57
    8.1431     26.32     26.20    -26.51     18.57
    8.1533     26.56     26.21    -26.29     18.57
    8.1635     26.27     26.23    -26.60     18.57
    8.1736     25.93     26.25    -26.95     18.57
    8.1838     26.14     26.27    -26.76     18.57
    8.1940     25.77     26.28    -27.15     18.57
    8.2041     26.90     26.30    -26.04     18.57
    8.2143     26.76     26.32    -26.19     18.57
    8.2244     26.95     26.34    -26.02     18.57
    8.2346     26.97     26.35    -26.02     18.56
    8.2448     26.51     26.37    -26.50     18.56
    8.2549     26.02     26.39    -27.01     18.56
    8.2651     27.48     26.41    -25.56     18.56
    8.2753     26.77     26.42    -26.29     18.56
    8.2854     27.10     26.44    -25.98     18.56
    8.2956     27.42     26.46    -25.68     18.56
    8.3058     26.66     26.48    -26.46     18.56
    8.3159     27.38     26.50    -25.75     18.56
    8.3261     26.48     26.52    -26.67     18.56
    8.3363     27.32     26.53    -25.85     18.56
    8.3464     27.02     26.55    -26.17     18.56
    8.3566     26.70     26.57    -26.51     18.55
    8.3667     27.54     26.59    -25.68     18.55
    8.3769     26.68     26.61    -26.56     18.55
    8.3871     26.51     26.63    -26.75     18.55
    8.3972     26.30     26.64    -26.98     18.55
    8.4074     26.78     26.66    -26.52     18.55
    8.4176     26.58     26.68    -26.74     18.55
    8.4277     26.46     26.70    -26.88     18.55
    8.4379     27.23     26.72    -26.13     18.55
    8.4481     27.15     26.74    -26.22     18.55
    8.4582     26.48     26.76    -26.91     18.55
    8.4684     26.54     26.78    -26.87     18.55
    8.4786     27.90     26.80    -25.53     18.54
    8.4887     27.24     26.81    -26.21     18.54
    8.4989     26.94     26.83    -26.53     18.54
    8.5091     27.61     26.85    -25.88     18.54
    8.5192     26.68     26.87    -26.83     18.54
    8.5294     27.49     26.89    -26.04     18.54
    8.5395     27.98     26.91    -25.57     18.54
    8.5497     27.32     26.93    -26.25     18.54
    8.5599     27.44     26.95    -26.15     18.54
    8.5700     28.07     26.97    -25.54     18.54
    8.5802     27.46     26.99    -26.17     18.54
    8.5904     26.91     27.01    -26.74     18.54
    8.6005     26.96     27.03    -26.71     18.53
    8.6107     27.63     27.05    -26.06     18.53
    8.6209     27.51     27.07    -26.20     18.53
    8.6310     27.81     27.09    -25.92     18.53
    8.6412     27.91     27.11    -25.84     18.53
    8.6514     27.68     27.13    -26.09     18.53
    8.6615     28.30     27.15    -25.49     18.53
    8.6717     27.12     27.17    -26.69     18.53
    8.6818     27.39     27.19    -26.44     18.53
    8.6920     27.22     27.21    -26.63     18.53
    8.7022     28.00     27.23    -25.87     18.53
    8.7123     27.84     27.25    -26.05     18.53
    8.7225     27.57     27.27    -26.34     18.52
    8.7327     27.84     27.29    -26.09     18.52
    8.7428     28.99     27.31    -24.96     18.52
    8.7530     27.15     27.33    -26.82     18.52
    8.7632     27.67     27.36    -26.32     18.52
    8.7733     28.15     27.38    -25.86     18.52
    8.7835     27.66     27.40    -26.37     18.52
    8.7937     27.21     27.42    -26.84     18.52
    8.8038     27.96     27.44    -26.11     18.52
    8.8140     28.70     27.46    -25.40     18.52
    8.8242     27.78     27.48    -26.34     18.52
    8.8343     27.50     27.50    -26.64     18.52
    8.8445     27.97     27.52    -26.19     18.51
    8.8546     28.38     27.55    -25.80     18.51
    8.8648     27.59     27.57    -26.61     18.51
    8.8750     28.38     27.59    -25.84     18.51
    8.8851     28.35     27.61    -25.90     18.51
    8.8953     28.57     27.63    -25.70     18.51
    8.9055     29.04     27.65    -25.25     18.51
    8.9156     28.29     27.68    -26.02     18.51
    8.9258     28.57     27.70    -25.76     18.51
    8.9360     28.01     27.72    -26.34     18.51
    8.9461     28.40     27.74    -25.98     18.51
    8.9563     28.16     27.76    -26.24     18.51
    8.9665     28.35     27.79    -26.07     18.50
    8.9766     28.40     27.81    -26.04     18.50
    8.9868     29.10     27.83    -25.37     18.50
    8.9969     29.51     27.85    -24.98     18.50
    9.0071     27.83     27.87    -26.68     18.50
    9.0173     29.90     27.90    -24.63     18.50
    9.0274     29.44     27.92    -25.12     18.50
    9.0376     27.68     27.94    -26.90     18.50
    9.0478     29.10     27.96    -25.50     18.50
    9.0579     29.10     27.99    -25.52     18.50
    9.0681     29.10     28.01    -25.55     18.50
    9.0783     28.95     28.03    -25.72     18.50
    9.0884     29.30     28.06    -25.39     18.49
    9.0986     27.91     28.08    -26.80     18.49
    9.1088     29.66     28.10    -25.08     18.49
    9.1189     28.67     28.13    -26.09     18.49
    9.1291     28.79     28.15    -25.99     18.49
    9.1393     28.97     28.17    -25.84     18.49
    9.1494     29.12     28.20    -25.71     18.49
    9.1596     29.05     28.22    -25.80     18.49
    9.1697     28.91     28.24    -25.97     18.49
    9.1799     29.22     28.27    -25.68     18.49
    9.1901     28.71     28.29    -26.22     18.49
    9.2002     29.48     28.31    -25.47     18.49
    9.2104     29.14     28.34    -25.83     18.48
    9.2206     28.27     28.36    -26.73     18.48
    9.2307     29.45     28.38    -25.57     18.48
    9.2409     29.74     28.41    -25.30     18.48
    9.2511     29.04     28.43    -26.03     18.48
    9.2612     29.59     28.46    -25.50     18.48
    9.2714     29.31     28.48    -25.81     18.48
    9.2816     28.70     28.51    -26.44     18.48
    9.2917     29.30     28.53    -25.87     18.48
    9.3019     29.20     28.55    -25.99     18.48
    9.3120     28.71     28.58    -26.50     18.48
    9.3222     29.87     28.60    -25.37     18.48
    9.3324     29.01     28.63    -26.25     18.47
    9.3425     29.41     28.65    -25.88     18.47
    9.3527     28.85     28.68    -26.46     18.47
    9.3629     29.46     28.70    -25.88     18.47
    9.3730     29.73     28.73    -25.63     18.47
    9.3832     29.54     28.75    -25.85     18.47
    9.3934     29.70     28.78    -25.71     18.47
    9.4035     29.25     28.80    -26.19     18.47
    9.4137     29.70     28.83    -25.76     18.47
    9.4239     29.18     28.85    -26.31     18.47
    9.4340     29.79     28.88    -25.72     18.47
    9.4442     29.26     28.90    -26.28     18.46
    9.4544     30.65     28.93    -24.92     18.46
    9.4645     29.26     28.95    -26.33     18.46
    9.4747     29.46     28.98    -26.16     18.46
    9.4848     30.37     29.01    -25.27     18.46
    9.4950     28.90     29.03    -26.77     18.46
    9.5052     29.98     29.06    -25.71     18.46
    9.5153     30.27     29.08    -25.45     18.46
    9.5255     29.90     29.11    -25.85     18.46
    9.5357     29.89     29.14    -25.88     18.46
    9.5458     30.04     29.16    -25.76     18.46
    9.5560     29.41     29.19    -26.41     18.46
    9.5662     29.96     29.21    -25.89     18.45
    9.5763     30.26     29.24    -25.62     18.45
    9.5865     29.30     29.27    -26.60     18.45
    9.5967     30.51     29.29    -25.42     18.45
    9.6068     30.76     29.32    -25.20     18.45
    9.6170     29.89     29.35    -26.09     18.45
    9.6271     30.70     29.37    -25.31     18.45
    9.6373     30.15     29.40    -25.89     18.45
    9.6475     29.76     29.43    -26.30     18.45
    9.6576     30.38     29.45    -25.71     18.45
    9.6678     29.52     29.48    -26.60     18.45
    9.6780     30.29     29.51    -25.86     18.45
    9.6881     30.33     29.54    -25.84     18.44
    9.6983     30.10     29.56    -26.10     18.44
    9.7085     29.68     29.59    -26.55     18.44
    9.7186     29.95     29.62    -26.30     18.44
    9.7288     30.57     29.65    -25.71     18.44
    9.7390     29.99     29.67    -26.32     18.44
    9.7491     30.21     29.70    -26.13     18.44
    9.7593     29.88     29.73    -26.49     18.44
    9.7694     29.95     29.76    -26.44     18.44
    9.7796     30.35     29.79    -26.07     18.44
    9.7898     30.72     29.81    -25.73     18.44
    9.7999     30.83     29.84    -25.65     18.44
    9.8101     30.55     29.87    -25.96     18.43
    9.8203     30.50     29.90    -26.03     18.43
    9.8304     29.82     29.93    -26.74     18.43
    9.8406     31.03     29.95    -25.56     18.43
    9.8508     30.82     29.98    -25.80     18.43
