 => TITLE: 
 => Data file name: C:\Users\stefano\Nextcloud2\notes\uni\thesis\XRD\data\G302\G302--5-40-0.01-1000ms.xy
 => Instrm        :    1
 => Lambda(1&2)   :   1.54060  1.54060
 => Numb.of.points:      2923
 => Numb.of.peaks :         8
    2Theta     Yobs     Ycalc  Yobs-Ycal    Backg    Bragg     Posr  Intensity   FWHM    Eta
    6.3135     22.30     24.34    -27.86     10.20   18.8388     -1.76     263.18  0.9586  1.0275
    6.3237     22.90     24.36    -27.28     10.20   20.6140     -1.76     111.45  1.5063  1.0275
    6.3338     22.96     24.37    -27.23     10.21   22.5721     -1.76     206.12  1.5422  1.0275
    6.3440     22.98     24.39    -27.23     10.21   28.7594     -1.76      52.10  1.2050  1.0275
    6.3542     22.47     24.41    -27.76     10.21   30.1692     -1.76      20.06  2.4018  1.0275
    6.3643     22.98     24.42    -27.26     10.21   33.3803     -1.76      21.77  2.4018  1.0275
    6.3745     23.49     24.44    -26.77     10.21   16.9852     -1.76      93.09  2.4018  1.0275
    6.3847     22.48     24.46    -27.80     10.21   20.1180     -1.76    1362.21 14.7004  1.0275
    6.3948     23.05     24.47    -27.24     10.21
    6.4050     23.04     24.49    -27.27     10.21
    6.4152     23.36     24.51    -26.97     10.21
    6.4253     22.90     24.52    -27.44     10.21
    6.4355     22.51     24.54    -27.85     10.21
    6.4457     23.39     24.56    -26.99     10.21
    6.4558     22.80     24.57    -27.59     10.21
    6.4660     22.88     24.59    -27.53     10.21
    6.4762     23.49     24.61    -26.94     10.21
    6.4863     23.51     24.62    -26.93     10.21
    6.4965     22.55     24.64    -27.91     10.21
    6.5066     23.13     24.66    -27.35     10.21
    6.5168     22.87     24.67    -27.62     10.21
    6.5270     23.77     24.69    -26.74     10.21
    6.5371     23.70     24.71    -26.83     10.21
    6.5473     23.57     24.73    -26.98     10.21
    6.5575     23.68     24.74    -26.88     10.21
    6.5676     23.16     24.76    -27.42     10.21
    6.5778     22.71     24.78    -27.89     10.21
    6.5880     24.29     24.79    -26.32     10.21
    6.5981     23.04     24.81    -27.59     10.21
    6.6083     23.35     24.83    -27.30     10.21
    6.6185     24.07     24.85    -26.60     10.21
    6.6286     23.62     24.86    -27.06     10.21
    6.6388     24.23     24.88    -26.47     10.21
    6.6489     23.67     24.90    -27.05     10.22
    6.6591     23.75     24.91    -26.98     10.22
    6.6693     23.15     24.93    -27.60     10.22
    6.6794     23.34     24.95    -27.43     10.22
    6.6896     23.30     24.97    -27.49     10.22
    6.6998     23.34     24.98    -27.46     10.22
    6.7099     23.66     25.00    -27.16     10.22
    6.7201     23.75     25.02    -27.09     10.22
    6.7303     23.73     25.04    -27.13     10.22
    6.7404     24.12     25.05    -26.75     10.22
    6.7506     23.84     25.07    -27.05     10.22
    6.7608     23.84     25.09    -27.07     10.22
    6.7709     23.76     25.11    -27.17     10.22
    6.7811     24.15     25.12    -26.79     10.22
    6.7913     23.82     25.14    -27.14     10.22
    6.8014     24.76     25.16    -26.22     10.22
    6.8116     24.29     25.18    -26.71     10.22
    6.8217     23.79     25.20    -27.23     10.22
    6.8319     23.65     25.21    -27.38     10.22
    6.8421     24.41     25.23    -26.64     10.22
    6.8522     25.16     25.25    -25.91     10.22
    6.8624     23.97     25.27    -27.12     10.22
    6.8726     23.59     25.28    -27.51     10.22
    6.8827     24.02     25.30    -27.10     10.22
    6.8929     24.29     25.32    -26.85     10.22
    6.9031     24.51     25.34    -26.65     10.22
    6.9132     24.98     25.36    -26.20     10.22
    6.9234     24.83     25.37    -26.36     10.22
    6.9336     24.60     25.39    -26.61     10.22
    6.9437     24.85     25.41    -26.38     10.22
    6.9539     24.39     25.43    -26.86     10.22
    6.9640     23.88     25.45    -27.39     10.23
    6.9742     24.49     25.47    -26.80     10.23
    6.9844     25.18     25.48    -26.12     10.23
    6.9945     24.48     25.50    -26.84     10.23
    7.0047     25.18     25.52    -26.16     10.23
    7.0149     24.22     25.54    -27.14     10.23
    7.0250     24.59     25.56    -26.79     10.23
    7.0352     25.42     25.57    -25.97     10.23
    7.0454     25.48     25.59    -25.93     10.23
    7.0555     24.27     25.61    -27.16     10.23
    7.0657     25.16     25.63    -26.29     10.23
    7.0759     24.56     25.65    -26.91     10.23
    7.0860     24.74     25.67    -26.75     10.23
    7.0962     24.52     25.69    -26.99     10.23
    7.1064     25.32     25.70    -26.20     10.23
    7.1165     25.13     25.72    -26.41     10.23
    7.1267     24.91     25.74    -26.65     10.23
    7.1368     25.29     25.76    -26.29     10.23
    7.1470     25.29     25.78    -26.31     10.23
    7.1572     25.75     25.80    -25.87     10.23
    7.1673     25.55     25.82    -26.09     10.23
    7.1775     25.38     25.84    -26.28     10.23
    7.1877     26.37     25.85    -25.30     10.23
    7.1978     25.45     25.87    -26.24     10.23
    7.2080     25.33     25.89    -26.38     10.23
    7.2182     25.78     25.91    -25.95     10.23
    7.2283     25.13     25.93    -26.62     10.23
    7.2385     25.74     25.95    -26.03     10.23
    7.2487     26.26     25.97    -25.53     10.23
    7.2588     26.50     25.99    -25.31     10.23
    7.2690     25.13     26.01    -26.70     10.23
    7.2791     26.19     26.02    -25.65     10.23
    7.2893     25.47     26.04    -26.39     10.24
    7.2995     26.55     26.06    -25.33     10.24
    7.3096     26.26     26.08    -25.64     10.24
    7.3198     26.24     26.10    -25.68     10.24
    7.3300     25.84     26.12    -26.10     10.24
    7.3401     25.95     26.14    -26.01     10.24
    7.3503     26.34     26.16    -25.64     10.24
    7.3605     25.79     26.18    -26.21     10.24
    7.3706     25.82     26.20    -26.20     10.24
    7.3808     26.34     26.22    -25.70     10.24
    7.3910     26.18     26.24    -25.88     10.24
    7.4011     26.37     26.26    -25.71     10.24
    7.4113     25.47     26.28    -26.63     10.24
    7.4215     25.85     26.30    -26.27     10.24
    7.4316     26.73     26.31    -25.40     10.24
    7.4418     26.33     26.33    -25.82     10.24
    7.4519     25.41     26.35    -26.76     10.24
    7.4621     25.96     26.37    -26.23     10.24
    7.4723     26.24     26.39    -25.97     10.24
    7.4824     26.92     26.41    -25.31     10.24
    7.4926     26.48     26.43    -25.77     10.24
    7.5028     25.96     26.45    -26.31     10.24
    7.5129     26.09     26.47    -26.20     10.24
    7.5231     25.96     26.49    -26.35     10.24
    7.5333     26.07     26.51    -26.26     10.24
    7.5434     25.91     26.53    -26.44     10.24
    7.5536     25.82     26.55    -26.55     10.24
    7.5638     25.70     26.57    -26.69     10.24
    7.5739     26.60     26.59    -25.81     10.24
    7.5841     26.37     26.61    -26.06     10.24
    7.5942     26.47     26.63    -25.98     10.24
    7.6044     25.98     26.65    -26.49     10.25
    7.6146     27.14     26.67    -25.35     10.25
    7.6247     26.51     26.69    -26.00     10.25
    7.6349     26.20     26.71    -26.33     10.25
    7.6451     27.02     26.73    -25.53     10.25
    7.6552     26.40     26.75    -26.17     10.25
    7.6654     27.17     26.77    -25.42     10.25
    7.6756     27.91     26.79    -24.70     10.25
    7.6857     27.36     26.81    -25.27     10.25
    7.6959     27.63     26.83    -25.02     10.25
    7.7061     27.17     26.85    -25.50     10.25
    7.7162     26.55     26.88    -26.15     10.25
    7.7264     26.98     26.90    -25.74     10.25
    7.7365     25.91     26.92    -26.83     10.25
    7.7467     26.50     26.94    -26.26     10.25
    7.7569     26.87     26.96    -25.91     10.25
    7.7670     27.30     26.98    -25.50     10.25
    7.7772     26.96     27.00    -25.86     10.25
    7.7874     27.61     27.02    -25.23     10.25
    7.7975     27.66     27.04    -25.20     10.25
    7.8077     26.91     27.06    -25.97     10.25
    7.8179     27.96     27.08    -24.94     10.25
    7.8280     26.82     27.10    -26.10     10.25
    7.8382     27.65     27.12    -25.29     10.25
    7.8484     26.63     27.14    -26.33     10.25
    7.8585     27.82     27.17    -25.17     10.25
    7.8687     27.33     27.19    -25.68     10.25
    7.8789     26.87     27.21    -26.16     10.25
    7.8890     27.51     27.23    -25.54     10.25
    7.8992     27.72     27.25    -25.35     10.25
    7.9093     26.87     27.27    -26.22     10.25
    7.9195     27.28     27.29    -25.83     10.26
    7.9297     28.19     27.31    -24.94     10.26
    7.9398     27.24     27.33    -25.91     10.26
    7.9500     27.92     27.36    -25.26     10.26
    7.9602     27.65     27.38    -25.55     10.26
    7.9703     28.19     27.40    -25.03     10.26
    7.9805     27.15     27.42    -26.09     10.26
    7.9907     28.32     27.44    -24.94     10.26
    8.0008     27.53     27.46    -25.75     10.26
    8.0110     28.05     27.48    -25.25     10.26
    8.0212     27.74     27.51    -25.59     10.26
    8.0313     27.46     27.53    -25.89     10.26
    8.0415     28.71     27.55    -24.66     10.26
    8.0516     27.37     27.57    -26.02     10.26
    8.0618     27.80     27.59    -25.61     10.26
    8.0720     27.97     27.61    -25.46     10.26
    8.0821     28.28     27.64    -25.18     10.26
    8.0923     28.41     27.66    -25.07     10.26
    8.1025     27.93     27.68    -25.57     10.26
    8.1126     28.49     27.70    -25.03     10.26
    8.1228     28.10     27.72    -25.44     10.26
    8.1330     28.63     27.75    -24.94     10.26
    8.1431     27.45     27.77    -26.14     10.26
    8.1533     27.60     27.79    -26.01     10.26
    8.1635     28.07     27.81    -25.56     10.26
    8.1736     29.21     27.83    -24.44     10.26
    8.1838     28.88     27.86    -24.80     10.26
    8.1940     28.73     27.88    -24.97     10.26
    8.2041     28.64     27.90    -25.08     10.26
    8.2143     28.01     27.92    -25.73     10.26
    8.2244     28.95     27.94    -24.81     10.26
    8.2346     28.80     27.97    -24.99     10.27
    8.2448     28.21     27.99    -25.60     10.27
    8.2549     28.90     28.01    -24.93     10.27
    8.2651     28.99     28.03    -24.86     10.27
    8.2753     28.97     28.06    -24.91     10.27
    8.2854     28.52     28.08    -25.38     10.27
    8.2956     28.13     28.10    -25.79     10.27
    8.3058     28.41     28.12    -25.53     10.27
    8.3159     29.34     28.15    -24.63     10.27
    8.3261     29.21     28.17    -24.78     10.27
    8.3363     29.16     28.19    -24.85     10.27
    8.3464     27.98     28.21    -26.05     10.27
    8.3566     29.16     28.24    -24.90     10.27
    8.3667     29.13     28.26    -24.95     10.27
    8.3769     28.64     28.28    -25.46     10.27
    8.3871     29.84     28.31    -24.29     10.27
    8.3972     28.73     28.33    -25.42     10.27
    8.4074     29.10     28.35    -25.07     10.27
    8.4176     29.40     28.37    -24.79     10.27
    8.4277     28.96     28.40    -25.26     10.27
    8.4379     29.07     28.42    -25.17     10.27
    8.4481     29.63     28.44    -24.63     10.27
    8.4582     28.38     28.47    -25.91     10.27
    8.4684     29.21     28.49    -25.10     10.27
    8.4786     29.99     28.51    -24.34     10.27
    8.4887     29.02     28.54    -25.34     10.27
    8.4989     29.26     28.56    -25.12     10.27
    8.5091     29.65     28.58    -24.75     10.27
    8.5192     29.74     28.61    -24.69     10.27
    8.5294     29.16     28.63    -25.29     10.27
    8.5395     29.32     28.65    -25.15     10.27
    8.5497     29.31     28.68    -25.19     10.27
    8.5599     29.62     28.70    -24.90     10.28
    8.5700     29.89     28.72    -24.65     10.28
    8.5802     30.41     28.75    -24.16     10.28
    8.5904     29.04     28.77    -25.55     10.28
    8.6005     29.74     28.80    -24.88     10.28
    8.6107     29.46     28.82    -25.18     10.28
    8.6209     29.56     28.84    -25.10     10.28
    8.6310     29.91     28.87    -24.78     10.28
    8.6412     29.35     28.89    -25.36     10.28
    8.6514     29.65     28.91    -25.08     10.28
    8.6615     30.30     28.94    -24.46     10.28
    8.6717     29.85     28.96    -24.93     10.28
    8.6818     29.79     28.99    -25.02     10.28
    8.6920     30.74     29.01    -24.09     10.28
    8.7022     29.70     29.04    -25.16     10.28
    8.7123     30.07     29.06    -24.81     10.28
    8.7225     29.10     29.08    -25.80     10.28
    8.7327     28.86     29.11    -26.07     10.28
    8.7428     30.23     29.13    -24.72     10.28
    8.7530     30.04     29.16    -24.94     10.28
    8.7632     29.54     29.18    -25.46     10.28
    8.7733     30.84     29.21    -24.19     10.28
    8.7835     30.46     29.23    -24.59     10.28
    8.7937     30.18     29.25    -24.89     10.28
    8.8038     30.51     29.28    -24.59     10.28
    8.8140     30.36     29.30    -24.76     10.28
    8.8242     30.01     29.33    -25.14     10.28
    8.8343     29.65     29.35    -25.52     10.28
    8.8445     30.49     29.38    -24.71     10.28
    8.8546     30.46     29.40    -24.76     10.28
    8.8648     30.08     29.43    -25.17     10.28
    8.8750     31.06     29.45    -24.21     10.29
    8.8851     30.39     29.48    -24.91     10.29
    8.8953     30.63     29.50    -24.69     10.29
    8.9055     29.84     29.53    -25.51     10.29
    8.9156     30.21     29.55    -25.16     10.29
    8.9258     30.51     29.58    -24.89     10.29
    8.9360     29.82     29.60    -25.60     10.29
    8.9461     30.36     29.63    -25.09     10.29
    8.9563     30.63     29.65    -24.84     10.29
    8.9665     31.11     29.68    -24.39     10.29
    8.9766     30.71     29.70    -24.81     10.29
    8.9868     31.18     29.73    -24.37     10.29
    8.9969     30.87     29.75    -24.70     10.29
    9.0071     30.83     29.78    -24.77     10.29
    9.0173     31.07     29.81    -24.56     10.29
    9.0274     30.37     29.83    -25.28     10.29
    9.0376     30.21     29.86    -25.47     10.29
    9.0478     30.94     29.88    -24.76     10.29
    9.0579     31.22     29.91    -24.51     10.29
    9.0681     30.82     29.93    -24.93     10.29
    9.0783     31.32     29.96    -24.46     10.29
    9.0884     30.59     29.99    -25.22     10.29
    9.0986     31.74     30.01    -24.09     10.29
    9.1088     32.55     30.04    -23.31     10.29
    9.1189     31.62     30.06    -24.26     10.29
    9.1291     31.30     30.09    -24.61     10.29
    9.1393     31.38     30.12    -24.56     10.29
    9.1494     31.66     30.14    -24.30     10.29
    9.1596     31.13     30.17    -24.86     10.29
    9.1697     30.68     30.19    -25.33     10.29
    9.1799     31.53     30.22    -24.51     10.29
    9.1901     30.44     30.25    -25.63     10.30
    9.2002     30.61     30.27    -25.48     10.30
    9.2104     31.57     30.30    -24.55     10.30
    9.2206     31.66     30.33    -24.49     10.30
    9.2307     31.57     30.35    -24.60     10.30
    9.2409     31.29     30.38    -24.91     10.30
    9.2511     30.70     30.41    -25.53     10.30
    9.2612     31.38     30.43    -24.87     10.30
    9.2714     32.03     30.46    -24.25     10.30
    9.2816     31.35     30.49    -24.96     10.30
    9.2917     31.37     30.51    -24.96     10.30
    9.3019     31.92     30.54    -24.44     10.30
    9.3120     31.49     30.57    -24.90     10.30
    9.3222     31.41     30.59    -25.00     10.30
    9.3324     32.26     30.62    -24.18     10.30
    9.3425     30.92     30.65    -25.55     10.30
    9.3527     31.80     30.67    -24.69     10.30
    9.3629     31.51     30.70    -25.01     10.30
    9.3730     31.26     30.73    -25.29     10.30
    9.3832     32.55     30.75    -24.02     10.30
    9.3934     32.20     30.78    -24.40     10.30
    9.4035     31.85     30.81    -24.78     10.30
    9.4137     31.48     30.84    -25.18     10.30
    9.4239     31.23     30.86    -25.45     10.30
    9.4340     31.69     30.89    -25.02     10.30
    9.4442     31.84     30.92    -24.90     10.30
    9.4544     31.70     30.95    -25.07     10.30
    9.4645     32.38     30.97    -24.41     10.30
    9.4747     32.37     31.00    -24.45     10.30
    9.4848     32.42     31.03    -24.43     10.30
    9.4950     32.28     31.06    -24.60     10.30
    9.5052     32.68     31.09    -24.23     10.31
    9.5153     32.09     31.11    -24.84     10.31
    9.5255     32.36     31.14    -24.60     10.31
    9.5357     32.55     31.17    -24.44     10.31
    9.5458     32.80     31.20    -24.22     10.31
    9.5560     32.85     31.23    -24.20     10.31
    9.5662     32.44     31.25    -24.63     10.31
    9.5763     32.59     31.28    -24.51     10.31
    9.5865     31.60     31.31    -25.53     10.31
    9.5967     31.74     31.34    -25.42     10.31
    9.6068     32.89     31.37    -24.30     10.31
    9.6170     32.34     31.39    -24.87     10.31
    9.6271     32.00     31.42    -25.24     10.31
    9.6373     32.92     31.45    -24.35     10.31
    9.6475     32.78     31.48    -24.52     10.31
    9.6576     32.41     31.51    -24.92     10.31
    9.6678     32.13     31.54    -25.23     10.31
    9.6780     32.50     31.57    -24.89     10.31
    9.6881     32.74     31.59    -24.67     10.31
    9.6983     32.56     31.62    -24.88     10.31
    9.7085     33.34     31.65    -24.13     10.31
    9.7186     33.48     31.68    -24.02     10.31
    9.7288     31.98     31.71    -25.55     10.31
    9.7390     32.43     31.74    -25.13     10.31
    9.7491     33.10     31.77    -24.49     10.31
    9.7593     32.98     31.80    -24.64     10.31
    9.7694     32.12     31.83    -25.53     10.31
    9.7796     33.10     31.86    -24.58     10.31
    9.7898     32.09     31.89    -25.62     10.31
    9.7999     32.35     31.91    -25.38     10.31
    9.8101     32.86     31.94    -24.90     10.31
    9.8203     33.16     31.97    -24.63     10.31
    9.8304     33.52     32.00    -24.30     10.32
    9.8406     33.34     32.03    -24.51     10.32
    9.8508     32.74     32.06    -25.14     10.32
    9.8609     33.45     32.09    -24.46     10.32
    9.8711     32.84     32.12    -25.10     10.32
    9.8813     33.23     32.15    -24.74     10.32
    9.8914     33.01     32.18    -24.99     10.32
    9.9016     33.07     32.21    -24.96     10.32
    9.9118     32.99     32.24    -25.07     10.32
    9.9219     32.65     32.27    -25.44     10.32
    9.9321     33.00     32.30    -25.12     10.32
    9.9422     32.74     32.33    -25.41     10.32
    9.9524     32.93     32.36    -25.25     10.32
    9.9626     33.30     32.39    -24.91     10.32
    9.9727     33.73     32.42    -24.51     10.32
    9.9829     32.09     32.45    -26.18     10.32
    9.9931     32.92     32.48    -25.38     10.32
   10.0032     32.76     32.51    -25.57     10.32
   10.0134     32.35     32.54    -26.01     10.32
   10.0236     32.20     32.57    -26.19     10.32
   10.0337     33.45     32.61    -24.98     10.32
   10.0439     32.96     32.64    -25.50     10.32
   10.0541     33.57     32.67    -24.92     10.32
   10.0642     33.30     32.70    -25.22     10.32
