 => TITLE: 
 => Data file name: C:\Users\stefano\Nextcloud2\uni\master-thesis\XRD\data\G310\G310--5-40-0.01-1000ms.xy
 => Instrm        :    1
 => Lambda(1&2)   :   1.54060  1.54060
 => Numb.of.points:      2951
 => Numb.of.peaks :         7
    2Theta     Yobs     Ycalc  Yobs-Ycal    Backg    Bragg     Posr  Intensity   FWHM    Eta
    6.0086     23.41     24.60    -21.56     20.00   18.6460      0.77     121.04  0.8006  0.6083
    6.0187     23.38     24.61    -21.60     20.00   20.5819      0.77       9.23  0.5104  0.6083
    6.0289     23.71     24.62    -21.27     20.00   22.4805      0.77      81.60  1.1019  0.6083
    6.0391     22.91     24.62    -22.08     20.00   28.4603      0.77      59.89  1.8437  0.6083
    6.0492     23.52     24.63    -21.48     20.00   30.0386      0.77      27.46  2.5734  0.6083
    6.0594     23.26     24.64    -21.74     20.00   33.3803      0.77      18.16  2.5734  0.6083
    6.0696     23.39     24.64    -21.62     20.00   19.6782      0.77    1106.95  8.4797  0.6083
    6.0797     24.06     24.65    -20.96     20.00
    6.0899     22.59     24.66    -22.43     20.00
    6.1001     23.09     24.66    -21.94     20.00
    6.1102     23.97     24.67    -21.07     20.00
    6.1204     23.44     24.68    -21.60     20.00
    6.1306     22.95     24.68    -22.10     20.00
    6.1407     22.98     24.69    -22.08     20.00
    6.1509     22.83     24.70    -22.23     20.00
    6.1611     23.12     24.70    -21.95     20.00
    6.1712     23.23     24.71    -21.85     20.00
    6.1814     21.97     24.72    -23.11     20.00
    6.1915     22.55     24.73    -22.54     20.00
    6.2017     22.80     24.73    -22.30     20.00
    6.2119     22.98     24.74    -22.13     20.00
    6.2220     23.05     24.75    -22.06     20.00
    6.2322     22.66     24.75    -22.46     20.00
    6.2424     22.80     24.76    -22.33     20.00
    6.2525     22.96     24.77    -22.17     20.00
    6.2627     21.90     24.77    -23.24     20.00
    6.2729     22.97     24.78    -22.18     20.00
    6.2830     22.52     24.79    -22.63     20.00
    6.2932     22.06     24.79    -23.10     20.00
    6.3034     22.94     24.80    -22.23     20.00
    6.3135     23.06     24.81    -22.12     20.00
    6.3237     22.60     24.82    -22.58     20.00
    6.3338     23.23     24.82    -21.96     20.00
    6.3440     23.20     24.83    -22.00     20.00
    6.3542     22.68     24.84    -22.52     20.00
    6.3643     22.33     24.84    -22.88     20.00
    6.3745     22.52     24.85    -22.70     20.00
    6.3847     22.83     24.86    -22.40     20.00
    6.3948     22.46     24.87    -22.77     20.00
    6.4050     22.43     24.87    -22.81     20.00
    6.4152     22.26     24.88    -22.99     20.00
    6.4253     22.84     24.89    -22.41     20.00
    6.4355     23.18     24.90    -22.08     20.00
    6.4457     23.04     24.90    -22.23     20.00
    6.4558     22.97     24.91    -22.31     20.00
    6.4660     22.85     24.92    -22.43     20.00
    6.4762     22.09     24.92    -23.20     20.00
    6.4863     23.37     24.93    -21.93     20.00
    6.4965     22.78     24.94    -22.53     20.00
    6.5066     22.59     24.95    -22.72     20.00
    6.5168     23.12     24.95    -22.20     20.00
    6.5270     23.60     24.96    -21.73     20.00
    6.5371     22.55     24.97    -22.79     20.00
    6.5473     23.21     24.98    -22.13     20.00
    6.5575     23.10     24.98    -22.25     20.00
    6.5676     22.98     24.99    -22.38     20.00
    6.5778     22.90     25.00    -22.47     20.00
    6.5880     22.29     25.01    -23.08     20.00
    6.5981     23.10     25.01    -22.28     20.00
    6.6083     22.83     25.02    -22.56     20.00
    6.6185     23.07     25.03    -22.33     20.00
    6.6286     22.80     25.04    -22.60     20.00
    6.6388     23.32     25.05    -22.09     20.00
    6.6489     23.08     25.05    -22.34     20.00
    6.6591     23.39     25.06    -22.04     20.00
    6.6693     22.60     25.07    -22.83     20.00
    6.6794     22.49     25.08    -22.95     20.00
    6.6896     23.20     25.08    -22.25     20.00
    6.6998     23.37     25.09    -22.09     20.00
    6.7099     23.56     25.10    -21.91     20.00
    6.7201     22.63     25.11    -22.84     20.00
    6.7303     23.40     25.12    -22.08     20.00
    6.7404     23.77     25.12    -21.72     20.00
    6.7506     22.71     25.13    -22.79     20.00
    6.7608     22.82     25.14    -22.69     20.00
    6.7709     23.26     25.15    -22.25     20.00
    6.7811     23.49     25.16    -22.03     20.00
    6.7913     23.49     25.16    -22.04     20.00
    6.8014     22.79     25.17    -22.75     20.00
    6.8116     24.10     25.18    -21.45     20.00
    6.8217     23.68     25.19    -21.87     20.00
    6.8319     23.82     25.20    -21.74     20.00
    6.8421     24.09     25.20    -21.48     20.00
    6.8522     23.04     25.21    -22.54     20.00
    6.8624     24.07     25.22    -21.52     20.00
    6.8726     23.62     25.23    -21.97     20.00
    6.8827     23.85     25.24    -21.75     20.00
    6.8929     22.96     25.25    -22.65     20.00
    6.9031     23.93     25.25    -21.69     20.00
    6.9132     23.29     25.26    -22.34     20.00
    6.9234     23.31     25.27    -22.33     20.00
    6.9336     23.66     25.28    -21.98     20.00
    6.9437     23.13     25.29    -22.52     20.00
    6.9539     23.82     25.30    -21.84     20.00
    6.9640     23.60     25.30    -22.07     20.00
    6.9742     23.47     25.31    -22.21     20.00
    6.9844     23.91     25.32    -21.78     20.00
    6.9945     23.80     25.33    -21.89     20.00
    7.0047     23.83     25.34    -21.87     20.00
    7.0149     23.91     25.35    -21.80     20.00
    7.0250     23.80     25.35    -21.92     20.00
    7.0352     23.88     25.36    -21.85     20.00
    7.0454     23.15     25.37    -22.59     20.00
    7.0555     23.16     25.38    -22.59     20.00
    7.0657     23.77     25.39    -21.98     20.00
    7.0759     23.37     25.40    -22.39     20.00
    7.0860     23.87     25.41    -21.90     20.00
    7.0962     23.90     25.42    -21.88     20.00
    7.1064     24.19     25.42    -21.60     20.00
    7.1165     24.01     25.43    -21.79     20.00
    7.1267     23.70     25.44    -22.11     20.00
    7.1368     23.77     25.45    -22.05     20.00
    7.1470     23.07     25.46    -22.76     20.00
    7.1572     23.87     25.47    -21.96     20.00
    7.1673     24.43     25.48    -21.41     20.00
    7.1775     23.97     25.49    -21.88     20.00
    7.1877     23.99     25.49    -21.87     20.00
    7.1978     24.60     25.50    -21.27     20.00
    7.2080     25.09     25.51    -20.79     20.00
    7.2182     23.71     25.52    -22.18     20.00
    7.2283     24.26     25.53    -21.64     20.00
    7.2385     24.92     25.54    -20.99     20.00
    7.2487     23.74     25.55    -22.18     20.00
    7.2588     24.43     25.56    -21.49     20.00
    7.2690     24.70     25.57    -21.23     20.00
    7.2791     24.67     25.58    -21.27     20.00
    7.2893     24.82     25.59    -21.13     20.00
    7.2995     24.32     25.60    -21.64     20.00
    7.3096     24.57     25.60    -21.40     20.00
    7.3198     25.20     25.61    -20.78     20.00
    7.3300     24.21     25.62    -21.78     20.00
    7.3401     24.82     25.63    -21.18     20.00
    7.3503     24.62     25.64    -21.39     20.00
    7.3605     24.15     25.65    -21.87     20.00
    7.3706     24.88     25.66    -21.15     20.00
    7.3808     24.13     25.67    -21.91     20.00
    7.3910     24.50     25.68    -21.55     20.00
    7.4011     24.93     25.69    -21.13     20.00
    7.4113     24.81     25.70    -21.26     20.00
    7.4215     24.20     25.71    -21.88     20.00
    7.4316     24.34     25.72    -21.74     20.00
    7.4418     24.81     25.73    -21.28     20.00
    7.4519     23.69     25.74    -22.41     20.00
    7.4621     24.62     25.75    -21.49     20.00
    7.4723     24.88     25.76    -21.24     20.00
    7.4824     24.59     25.77    -21.54     20.00
    7.4926     24.07     25.78    -22.07     20.00
    7.5028     24.96     25.79    -21.19     20.00
    7.5129     24.32     25.80    -21.84     20.00
    7.5231     24.70     25.81    -21.47     20.00
    7.5333     25.13     25.82    -21.05     20.00
    7.5434     24.74     25.83    -21.45     20.00
    7.5536     25.03     25.84    -21.17     20.00
    7.5638     24.65     25.85    -21.56     20.00
    7.5739     24.76     25.86    -21.46     20.00
    7.5841     24.87     25.87    -21.36     20.00
    7.5942     24.88     25.88    -21.36     20.00
    7.6044     24.53     25.89    -21.72     20.00
    7.6146     24.85     25.90    -21.41     20.00
    7.6247     24.38     25.91    -21.89     20.00
    7.6349     25.07     25.92    -21.21     20.00
    7.6451     24.79     25.93    -21.50     20.00
    7.6552     23.98     25.94    -22.32     20.00
    7.6654     25.15     25.95    -21.17     20.00
    7.6756     23.85     25.96    -22.48     20.00
    7.6857     24.82     25.97    -21.52     20.00
    7.6959     24.87     25.98    -21.48     20.00
    7.7061     24.85     25.99    -21.51     20.00
    7.7162     25.51     26.00    -20.86     20.00
    7.7264     25.40     26.01    -20.98     20.00
    7.7365     25.16     26.02    -21.23     20.00
    7.7467     25.15     26.03    -21.25     20.00
    7.7569     24.68     26.04    -21.73     20.00
    7.7670     25.18     26.06    -21.24     20.00
    7.7772     24.62     26.07    -21.81     20.00
    7.7874     25.32     26.08    -21.12     20.00
    7.7975     25.44     26.09    -21.01     20.00
    7.8077     24.76     26.10    -21.70     20.00
    7.8179     24.65     26.11    -21.83     20.00
    7.8280     24.94     26.12    -21.55     20.00
    7.8382     25.12     26.13    -21.38     20.00
    7.8484     25.16     26.14    -21.35     20.00
    7.8585     25.22     26.15    -21.30     20.00
    7.8687     25.51     26.16    -21.02     20.00
    7.8789     25.88     26.18    -20.66     20.00
    7.8890     26.40     26.19    -20.15     20.00
    7.8992     26.19     26.20    -20.37     20.00
    7.9093     25.54     26.21    -21.04     20.00
    7.9195     25.40     26.22    -21.19     20.00
    7.9297     25.61     26.23    -20.99     20.00
    7.9398     25.54     26.24    -21.07     20.00
    7.9500     25.12     26.25    -21.50     20.00
    7.9602     25.43     26.27    -21.20     20.00
    7.9703     25.22     26.28    -21.42     20.00
    7.9805     26.24     26.29    -20.41     20.00
    7.9907     25.29     26.30    -21.38     20.00
    8.0008     25.97     26.31    -20.71     20.00
    8.0110     26.90     26.32    -19.79     20.00
    8.0212     25.46     26.34    -21.24     20.00
    8.0313     26.38     26.35    -20.33     20.00
    8.0415     26.15     26.36    -20.57     20.00
    8.0516     26.21     26.37    -20.53     20.00
    8.0618     26.01     26.38    -20.74     20.00
    8.0720     25.98     26.39    -20.78     20.00
    8.0821     26.22     26.41    -20.55     20.00
    8.0923     25.68     26.42    -21.10     20.00
    8.1025     25.70     26.43    -21.10     20.00
    8.1126     26.26     26.44    -20.55     20.00
    8.1228     25.68     26.45    -21.14     20.00
    8.1330     25.96     26.47    -20.87     20.00
    8.1431     26.28     26.48    -20.56     20.00
    8.1533     26.02     26.49    -20.84     20.00
    8.1635     26.99     26.50    -19.88     20.00
    8.1736     25.79     26.52    -21.09     20.00
    8.1838     25.28     26.53    -21.61     20.00
    8.1940     26.04     26.54    -20.87     20.00
    8.2041     26.87     26.55    -20.05     20.00
    8.2143     26.49     26.56    -20.44     20.00
    8.2244     26.40     26.58    -20.54     20.00
    8.2346     26.64     26.59    -20.32     20.00
    8.2448     25.72     26.60    -21.25     20.00
    8.2549     26.01     26.62    -20.97     20.00
    8.2651     26.24     26.63    -20.75     20.00
    8.2753     26.19     26.64    -20.82     20.00
    8.2854     26.59     26.65    -20.43     20.00
    8.2956     26.67     26.67    -20.36     20.00
    8.3058     27.12     26.68    -19.93     20.00
    8.3159     26.46     26.69    -20.60     20.00
    8.3261     26.74     26.71    -20.33     20.00
    8.3363     26.87     26.72    -20.21     20.00
    8.3464     26.83     26.73    -20.27     20.00
    8.3566     26.98     26.74    -20.13     20.00
    8.3667     26.38     26.76    -20.74     20.00
    8.3769     25.79     26.77    -21.35     20.00
    8.3871     26.62     26.78    -20.53     20.00
    8.3972     26.86     26.80    -20.30     20.00
    8.4074     26.91     26.81    -20.27     20.00
    8.4176     26.58     26.82    -20.61     20.00
    8.4277     26.37     26.84    -20.83     20.00
    8.4379     27.51     26.85    -19.71     20.00
    8.4481     26.43     26.86    -20.80     20.00
    8.4582     27.18     26.88    -20.06     20.00
    8.4684     26.56     26.89    -20.70     20.00
    8.4786     26.68     26.91    -20.59     20.00
    8.4887     26.66     26.92    -20.62     20.00
    8.4989     26.77     26.93    -20.53     20.00
    8.5091     27.12     26.95    -20.19     20.00
    8.5192     26.45     26.96    -20.88     20.00
    8.5294     26.63     26.97    -20.71     20.00
    8.5395     27.21     26.99    -20.14     20.00
    8.5497     27.73     27.00    -19.64     20.00
    8.5599     27.14     27.02    -20.24     20.00
    8.5700     28.10     27.03    -19.30     20.00
    8.5802     26.55     27.04    -20.86     20.00
    8.5904     27.65     27.06    -19.77     20.00
    8.6005     27.16     27.07    -20.28     20.00
    8.6107     26.82     27.09    -20.63     20.00
    8.6209     27.58     27.10    -19.89     20.00
    8.6310     27.17     27.12    -20.31     20.00
    8.6412     27.74     27.13    -19.76     20.00
    8.6514     27.57     27.15    -19.94     20.00
    8.6615     28.10     27.16    -19.43     20.00
    8.6717     27.32     27.17    -20.22     20.00
    8.6818     27.27     27.19    -20.29     20.00
    8.6920     28.85     27.20    -18.72     20.00
    8.7022     26.64     27.22    -20.95     20.00
    8.7123     27.93     27.23    -19.67     20.00
    8.7225     26.86     27.25    -20.75     20.00
    8.7327     26.99     27.26    -20.64     20.00
    8.7428     27.79     27.28    -19.85     20.00
    8.7530     27.22     27.29    -20.44     20.00
    8.7632     27.71     27.31    -19.97     20.00
    8.7733     27.84     27.32    -19.85     20.00
    8.7835     27.80     27.34    -19.91     20.00
    8.7937     27.82     27.36    -19.90     20.00
    8.8038     27.41     27.37    -20.33     20.00
    8.8140     28.74     27.39    -19.01     20.00
    8.8242     27.54     27.40    -20.23     20.00
    8.8343     27.40     27.42    -20.38     20.00
    8.8445     27.59     27.43    -20.21     20.00
    8.8546     28.02     27.45    -19.79     20.00
    8.8648     28.02     27.46    -19.81     20.00
    8.8750     27.19     27.48    -20.66     20.00
    8.8851     27.88     27.50    -19.98     20.00
    8.8953     28.68     27.51    -19.20     20.00
    8.9055     28.37     27.53    -19.52     20.00
    8.9156     28.10     27.54    -19.81     20.00
    8.9258     28.09     27.56    -19.84     20.00
    8.9360     28.75     27.58    -19.19     20.00
    8.9461     27.77     27.59    -20.19     20.00
    8.9563     29.20     27.61    -18.77     20.00
    8.9665     27.27     27.63    -20.72     20.00
    8.9766     27.77     27.64    -20.24     20.00
    8.9868     27.84     27.66    -20.18     20.00
    8.9969     28.93     27.67    -19.11     20.00
    9.0071     28.23     27.69    -19.83     20.00
    9.0173     28.00     27.71    -20.07     20.00
    9.0274     27.93     27.72    -20.16     20.00
    9.0376     27.94     27.74    -20.17     20.00
    9.0478     29.01     27.76    -19.11     20.00
    9.0579     28.05     27.78    -20.09     20.00
    9.0681     28.27     27.79    -19.89     20.00
    9.0783     29.02     27.81    -19.16     20.00
    9.0884     29.48     27.83    -18.71     20.00
    9.0986     27.43     27.84    -20.78     20.00
    9.1088     28.46     27.86    -19.77     20.00
    9.1189     28.90     27.88    -19.34     20.00
    9.1291     28.48     27.90    -19.78     20.00
    9.1393     29.65     27.91    -18.63     20.00
    9.1494     28.20     27.93    -20.10     20.00
    9.1596     28.23     27.95    -20.08     20.00
    9.1697     28.34     27.97    -19.99     20.00
    9.1799     28.92     27.98    -19.43     20.00
    9.1901     28.48     28.00    -19.89     20.00
    9.2002     28.48     28.02    -19.91     20.00
    9.2104     29.36     28.04    -19.04     20.00
    9.2206     28.07     28.06    -20.35     20.00
    9.2307     28.34     28.07    -20.10     20.00
    9.2409     28.93     28.09    -19.53     20.00
    9.2511     28.60     28.11    -19.88     20.00
    9.2612     28.65     28.13    -19.84     20.00
    9.2714     29.21     28.15    -19.30     20.00
    9.2816     28.23     28.17    -20.30     20.00
    9.2917     29.84     28.18    -18.71     20.00
    9.3019     29.85     28.20    -18.72     20.00
    9.3120     28.75     28.22    -19.84     20.00
    9.3222     28.63     28.24    -19.98     20.00
    9.3324     29.16     28.26    -19.47     20.00
    9.3425     28.95     28.28    -19.69     20.00
    9.3527     28.45     28.30    -20.21     20.00
    9.3629     29.01     28.32    -19.67     20.00
    9.3730     28.91     28.34    -19.79     20.00
    9.3832     29.46     28.35    -19.26     20.00
    9.3934     29.40     28.37    -19.34     20.00
    9.4035     28.68     28.39    -20.08     20.00
    9.4137     30.32     28.41    -18.46     20.00
    9.4239     29.44     28.43    -19.36     20.00
    9.4340     30.14     28.45    -18.68     20.00
    9.4442     29.70     28.47    -19.14     20.00
    9.4544     29.45     28.49    -19.41     20.00
    9.4645     29.28     28.51    -19.60     20.00
    9.4747     30.35     28.53    -18.55     20.00
    9.4848     30.08     28.55    -18.84     20.00
    9.4950     30.18     28.57    -18.76     20.00
    9.5052     30.09     28.59    -18.87     20.00
    9.5153     29.12     28.61    -19.86     20.00
    9.5255     29.93     28.63    -19.07     20.00
    9.5357     29.98     28.65    -19.04     20.00
    9.5458     30.09     28.67    -18.95     20.00
    9.5560     29.16     28.69    -19.90     20.00
    9.5662     30.38     28.71    -18.70     20.00
    9.5763     29.51     28.73    -19.59     20.00
    9.5865     28.88     28.76    -20.24     20.00
    9.5967     29.83     28.78    -19.31     20.00
    9.6068     29.99     28.80    -19.17     20.00
    9.6170     29.50     28.82    -19.68     20.00
    9.6271     30.41     28.84    -18.80     20.00
    9.6373     29.91     28.86    -19.32     20.00
    9.6475     30.41     28.88    -18.84     20.00
    9.6576     30.59     28.90    -18.68     20.00
    9.6678     30.18     28.93    -19.11     20.00
    9.6780     29.55     28.95    -19.76     20.00
    9.6881     31.09     28.97    -18.24     20.00
    9.6983     31.33     28.99    -18.03     20.00
    9.7085     30.12     29.01    -19.26     20.00
    9.7186     30.34     29.03    -19.06     20.00
    9.7288     29.51     29.06    -19.91     20.00
    9.7390     29.48     29.08    -19.96     20.00
    9.7491     30.91     29.10    -18.56     20.00
    9.7593     30.34     29.12    -19.15     20.00
    9.7694     30.72     29.15    -18.79     20.00
