 => TITLE: 
 => Data file name: C:\Users\stefano\Nextcloud2\projects\programming\python\xrd-winplotr\folder\G305\G305--5-40-0.01-1000ms.xy
 => Instrm        :    1
 => Lambda(1&2)   :   1.54060  1.54060
 => Numb.of.points:      2949
 => Numb.of.peaks :         8
    2Theta     Yobs     Ycalc  Yobs-Ycal    Backg    Bragg     Posr  Intensity   FWHM    Eta
    5.9476     24.81     24.66    -21.37     20.26   18.5963      0.71     141.77  0.8845  0.5000
    5.9578     24.44     24.67    -21.75     20.26   20.3564      0.71      54.74  1.2377  0.5000
    5.9679     25.06     24.68    -21.14     20.26   22.3711      0.71     104.50  1.2514  0.5000
    5.9781     24.91     24.68    -21.30     20.26   28.4538      0.71      40.31  1.4173  0.5000
    5.9883     25.07     24.69    -21.14     20.26   29.9864      0.71      46.11  4.0797  0.5000
    5.9984     24.17     24.70    -22.05     20.26   33.4064      0.71      11.24  1.7364  0.5000
    6.0086     24.68     24.71    -21.55     20.26   17.4812      0.71      76.07  2.5650  0.5000
    6.0187     25.04     24.71    -21.20     20.26   19.7525      0.71    1019.70 10.2180  0.5000
    6.0289     25.01     24.72    -21.24     20.26
    6.0391     24.21     24.73    -22.04     20.26
    6.0492     24.46     24.74    -21.80     20.26
    6.0594     24.79     24.75    -21.48     20.26
    6.0696     24.70     24.75    -21.58     20.26
    6.0797     24.29     24.76    -22.00     20.26
    6.0899     24.72     24.77    -21.57     20.26
    6.1001     24.35     24.78    -21.95     20.26
    6.1102     24.49     24.79    -21.82     20.26
    6.1204     24.20     24.79    -22.12     20.26
    6.1306     24.32     24.80    -22.01     20.26
    6.1407     24.40     24.81    -21.94     20.26
    6.1509     24.18     24.82    -22.16     20.26
    6.1611     24.45     24.83    -21.90     20.26
    6.1712     23.84     24.84    -22.52     20.26
    6.1814     24.26     24.84    -22.11     20.26
    6.1915     23.88     24.85    -22.50     20.26
    6.2017     24.03     24.86    -22.36     20.26
    6.2119     23.87     24.87    -22.52     20.26
    6.2220     24.30     24.88    -22.10     20.26
    6.2322     23.94     24.89    -22.47     20.26
    6.2424     23.80     24.89    -22.62     20.26
    6.2525     24.66     24.90    -21.77     20.26
    6.2627     23.66     24.91    -22.78     20.26
    6.2729     24.15     24.92    -22.29     20.26
    6.2830     24.28     24.93    -22.17     20.26
    6.2932     24.60     24.94    -21.86     20.26
    6.3034     23.36     24.95    -23.11     20.26
    6.3135     23.60     24.96    -22.88     20.26
    6.3237     23.59     24.96    -22.90     20.26
    6.3338     24.84     24.97    -21.66     20.26
    6.3440     24.73     24.98    -21.78     20.26
    6.3542     23.96     24.99    -22.55     20.26
    6.3643     24.35     25.00    -22.17     20.26
    6.3745     23.30     25.01    -23.23     20.26
    6.3847     23.27     25.02    -23.27     20.26
    6.3948     24.23     25.03    -22.32     20.26
    6.4050     23.91     25.03    -22.65     20.26
    6.4152     23.70     25.04    -22.87     20.26
    6.4253     24.16     25.05    -22.42     20.26
    6.4355     24.27     25.06    -22.32     20.26
    6.4457     23.38     25.07    -23.21     20.26
    6.4558     24.00     25.08    -22.60     20.26
    6.4660     23.90     25.09    -22.71     20.26
    6.4762     23.70     25.10    -22.92     20.26
    6.4863     23.93     25.11    -22.70     20.26
    6.4965     24.17     25.12    -22.47     20.26
    6.5066     23.94     25.13    -22.71     20.27
    6.5168     23.84     25.14    -22.82     20.27
    6.5270     23.93     25.14    -22.74     20.27
    6.5371     22.95     25.15    -23.73     20.27
    6.5473     23.12     25.16    -23.57     20.27
    6.5575     23.91     25.17    -22.79     20.27
    6.5676     24.20     25.18    -22.51     20.27
    6.5778     24.59     25.19    -22.13     20.27
    6.5880     24.02     25.20    -22.71     20.27
    6.5981     24.21     25.21    -22.52     20.27
    6.6083     24.17     25.22    -22.57     20.27
    6.6185     24.54     25.23    -22.21     20.27
    6.6286     24.49     25.24    -22.27     20.27
    6.6388     24.31     25.25    -22.46     20.27
    6.6489     24.59     25.26    -22.19     20.27
    6.6591     24.38     25.27    -22.41     20.27
    6.6693     23.68     25.28    -23.12     20.27
    6.6794     23.57     25.29    -23.24     20.27
    6.6896     24.78     25.30    -22.04     20.27
    6.6998     24.46     25.31    -22.37     20.27
    6.7099     24.46     25.32    -22.38     20.27
    6.7201     23.53     25.33    -23.32     20.27
    6.7303     25.36     25.34    -21.50     20.27
    6.7404     24.38     25.35    -22.49     20.27
    6.7506     23.39     25.36    -23.49     20.27
    6.7608     23.76     25.37    -23.13     20.27
    6.7709     24.01     25.38    -22.89     20.27
    6.7811     23.87     25.39    -23.04     20.27
    6.7913     24.43     25.40    -22.49     20.27
    6.8014     24.32     25.41    -22.61     20.27
    6.8116     23.98     25.42    -22.96     20.27
    6.8217     24.18     25.43    -22.77     20.27
    6.8319     22.94     25.44    -24.02     20.27
    6.8421     23.62     25.45    -23.35     20.27
    6.8522     24.19     25.46    -22.80     20.27
    6.8624     24.31     25.47    -22.69     20.27
    6.8726     24.38     25.48    -22.63     20.27
    6.8827     25.31     25.49    -21.71     20.27
    6.8929     24.70     25.50    -22.33     20.27
    6.9031     24.97     25.51    -22.07     20.27
    6.9132     23.93     25.52    -23.12     20.27
    6.9234     23.61     25.54    -23.45     20.27
    6.9336     23.90     25.55    -23.17     20.27
    6.9437     24.36     25.56    -22.72     20.27
    6.9539     24.58     25.57    -22.51     20.27
    6.9640     24.64     25.58    -22.46     20.27
    6.9742     24.35     25.59    -22.76     20.27
    6.9844     24.02     25.60    -23.10     20.27
    6.9945     24.35     25.61    -22.79     20.27
    7.0047     24.76     25.62    -22.39     20.27
    7.0149     24.35     25.63    -22.81     20.27
    7.0250     24.51     25.64    -22.66     20.27
    7.0352     24.78     25.66    -22.40     20.27
    7.0454     23.80     25.67    -23.39     20.27
    7.0555     24.70     25.68    -22.50     20.27
    7.0657     24.51     25.69    -22.70     20.27
    7.0759     24.20     25.70    -23.02     20.27
    7.0860     24.05     25.71    -23.19     20.27
    7.0962     25.04     25.72    -22.21     20.27
    7.1064     24.80     25.73    -22.46     20.27
    7.1165     25.11     25.75    -22.16     20.27
    7.1267     25.05     25.76    -22.23     20.27
    7.1368     24.51     25.77    -22.78     20.27
    7.1470     24.55     25.78    -22.75     20.27
    7.1572     24.93     25.79    -22.39     20.27
    7.1673     24.74     25.80    -22.59     20.27
    7.1775     25.26     25.82    -22.08     20.27
    7.1877     25.18     25.83    -22.17     20.27
    7.1978     25.03     25.84    -22.33     20.27
    7.2080     25.48     25.85    -21.90     20.27
    7.2182     25.16     25.86    -22.23     20.28
    7.2283     24.31     25.87    -23.09     20.28
    7.2385     24.27     25.89    -23.14     20.28
    7.2487     25.16     25.90    -22.26     20.28
    7.2588     24.41     25.91    -23.02     20.28
    7.2690     24.22     25.92    -23.23     20.28
    7.2791     25.06     25.94    -22.40     20.28
    7.2893     25.32     25.95    -22.15     20.28
    7.2995     25.57     25.96    -21.91     20.28
    7.3096     25.25     25.97    -22.25     20.28
    7.3198     25.34     25.98    -22.17     20.28
    7.3300     25.77     26.00    -21.75     20.28
    7.3401     26.04     26.01    -21.49     20.28
    7.3503     25.42     26.02    -22.13     20.28
    7.3605     24.62     26.03    -22.94     20.28
    7.3706     25.79     26.05    -21.78     20.28
    7.3808     24.51     26.06    -23.07     20.28
    7.3910     25.77     26.07    -21.83     20.28
    7.4011     25.38     26.08    -22.23     20.28
    7.4113     25.90     26.10    -21.72     20.28
    7.4215     25.30     26.11    -22.33     20.28
    7.4316     25.34     26.12    -22.31     20.28
    7.4418     25.52     26.14    -22.14     20.28
    7.4519     24.95     26.15    -22.72     20.28
    7.4621     25.12     26.16    -22.57     20.28
    7.4723     25.76     26.17    -21.94     20.28
    7.4824     24.71     26.19    -23.00     20.28
    7.4926     25.24     26.20    -22.48     20.28
    7.5028     24.85     26.21    -22.89     20.28
    7.5129     25.95     26.23    -21.80     20.28
    7.5231     26.25     26.24    -21.51     20.28
    7.5333     25.31     26.25    -22.47     20.28
    7.5434     25.09     26.27    -22.70     20.28
    7.5536     25.80     26.28    -22.00     20.28
    7.5638     26.45     26.29    -21.37     20.28
    7.5739     25.03     26.31    -22.80     20.28
    7.5841     25.90     26.32    -21.94     20.28
    7.5942     25.20     26.33    -22.66     20.28
    7.6044     25.68     26.35    -22.19     20.28
    7.6146     26.62     26.36    -21.27     20.28
    7.6247     25.74     26.38    -22.16     20.28
    7.6349     26.01     26.39    -21.90     20.28
    7.6451     26.16     26.40    -21.77     20.28
    7.6552     25.63     26.42    -22.31     20.28
    7.6654     24.76     26.43    -23.19     20.28
    7.6756     26.00     26.44    -21.97     20.28
    7.6857     25.89     26.46    -22.09     20.28
    7.6959     26.26     26.47    -21.74     20.28
    7.7061     26.25     26.49    -21.76     20.28
    7.7162     26.21     26.50    -21.82     20.28
    7.7264     25.78     26.52    -22.26     20.28
    7.7365     26.09     26.53    -21.96     20.28
    7.7467     27.25     26.54    -20.82     20.28
    7.7569     26.43     26.56    -21.65     20.28
    7.7670     26.20     26.57    -21.90     20.28
    7.7772     26.45     26.59    -21.66     20.28
    7.7874     26.66     26.60    -21.47     20.28
    7.7975     25.90     26.62    -22.24     20.28
    7.8077     26.32     26.63    -21.84     20.28
    7.8179     26.24     26.65    -21.93     20.28
    7.8280     25.88     26.66    -22.30     20.28
    7.8382     26.13     26.68    -22.07     20.28
    7.8484     26.83     26.69    -21.38     20.28
    7.8585     26.23     26.71    -22.00     20.28
    7.8687     26.56     26.72    -21.68     20.28
    7.8789     25.54     26.74    -22.72     20.28
    7.8890     26.43     26.75    -21.84     20.28
    7.8992     27.12     26.77    -21.17     20.28
    7.9093     26.48     26.78    -21.83     20.28
    7.9195     26.20     26.80    -22.12     20.29
    7.9297     27.01     26.81    -21.33     20.29
    7.9398     26.79     26.83    -21.56     20.29
    7.9500     26.51     26.84    -21.86     20.29
    7.9602     27.08     26.86    -21.30     20.29
    7.9703     26.48     26.87    -21.92     20.29
    7.9805     26.92     26.89    -21.49     20.29
    7.9907     26.82     26.91    -21.61     20.29
    8.0008     27.29     26.92    -21.15     20.29
    8.0110     27.29     26.94    -21.17     20.29
    8.0212     26.39     26.95    -22.09     20.29
    8.0313     27.56     26.97    -20.93     20.29
    8.0415     27.11     26.98    -21.40     20.29
    8.0516     26.87     27.00    -21.65     20.29
    8.0618     26.98     27.02    -21.56     20.29
    8.0720     27.41     27.03    -21.15     20.29
    8.0821     27.36     27.05    -21.21     20.29
    8.0923     27.07     27.07    -21.52     20.29
    8.1025     27.93     27.08    -20.68     20.29
    8.1126     27.32     27.10    -21.30     20.29
    8.1228     27.52     27.11    -21.12     20.29
    8.1330     27.63     27.13    -21.03     20.29
    8.1431     27.55     27.15    -21.12     20.29
    8.1533     26.53     27.16    -22.16     20.29
    8.1635     28.43     27.18    -20.28     20.29
    8.1736     27.16     27.20    -21.56     20.29
    8.1838     26.92     27.21    -21.82     20.29
    8.1940     27.98     27.23    -20.78     20.29
    8.2041     27.32     27.25    -21.45     20.29
    8.2143     27.37     27.27    -21.42     20.29
    8.2244     27.49     27.28    -21.32     20.29
    8.2346     27.59     27.30    -21.23     20.29
    8.2448     27.40     27.32    -21.44     20.29
    8.2549     27.35     27.33    -21.51     20.29
    8.2651     27.34     27.35    -21.54     20.29
    8.2753     27.82     27.37    -21.07     20.29
    8.2854     27.30     27.39    -21.61     20.29
    8.2956     27.76     27.40    -21.17     20.29
    8.3058     27.53     27.42    -21.42     20.29
    8.3159     27.97     27.44    -20.99     20.29
    8.3261     27.43     27.46    -21.55     20.29
    8.3363     27.90     27.48    -21.10     20.29
    8.3464     27.88     27.49    -21.14     20.29
    8.3566     28.52     27.51    -20.51     20.29
    8.3667     28.63     27.53    -20.42     20.29
    8.3769     28.18     27.55    -20.89     20.29
    8.3871     28.46     27.57    -20.63     20.29
    8.3972     28.38     27.58    -20.73     20.29
    8.4074     27.96     27.60    -21.17     20.29
    8.4176     29.32     27.62    -19.82     20.29
    8.4277     27.55     27.64    -21.61     20.29
    8.4379     28.09     27.66    -21.09     20.29
    8.4481     28.04     27.68    -21.16     20.29
    8.4582     28.00     27.69    -21.22     20.29
    8.4684     28.03     27.71    -21.21     20.29
    8.4786     27.82     27.73    -21.44     20.29
    8.4887     28.13     27.75    -21.14     20.29
    8.4989     28.90     27.77    -20.39     20.29
    8.5091     28.09     27.79    -21.22     20.29
    8.5192     27.41     27.81    -21.92     20.29
    8.5294     27.26     27.83    -22.09     20.29
    8.5395     28.25     27.85    -21.12     20.29
    8.5497     28.02     27.86    -21.37     20.29
    8.5599     28.40     27.88    -21.01     20.29
    8.5700     28.42     27.90    -21.01     20.29
    8.5802     30.01     27.92    -19.44     20.29
    8.5904     28.73     27.94    -20.74     20.29
    8.6005     29.41     27.96    -20.08     20.29
    8.6107     28.20     27.98    -21.31     20.29
    8.6209     28.50     28.00    -21.03     20.30
    8.6310     28.51     28.02    -21.04     20.30
    8.6412     28.68     28.04    -20.89     20.30
    8.6514     28.11     28.06    -21.48     20.30
    8.6615     28.18     28.08    -21.43     20.30
    8.6717     28.91     28.10    -20.72     20.30
    8.6818     28.65     28.12    -21.00     20.30
    8.6920     28.95     28.14    -20.72     20.30
    8.7022     28.55     28.16    -21.14     20.30
    8.7123     28.83     28.18    -20.88     20.30
    8.7225     28.70     28.20    -21.03     20.30
    8.7327     28.18     28.22    -21.57     20.30
    8.7428     29.66     28.24    -20.11     20.30
    8.7530     29.33     28.27    -20.46     20.30
    8.7632     28.32     28.29    -21.49     20.30
    8.7733     29.76     28.31    -20.07     20.30
    8.7835     29.58     28.33    -20.27     20.30
    8.7937     29.04     28.35    -20.83     20.30
    8.8038     29.20     28.37    -20.69     20.30
    8.8140     28.85     28.39    -21.07     20.30
    8.8242     29.37     28.41    -20.57     20.30
    8.8343     29.38     28.43    -20.58     20.30
    8.8445     28.94     28.46    -21.04     20.30
    8.8546     29.03     28.48    -20.97     20.30
    8.8648     30.46     28.50    -19.56     20.30
    8.8750     29.88     28.52    -20.16     20.30
    8.8851     29.05     28.54    -21.02     20.30
    8.8953     30.18     28.56    -19.91     20.30
    8.9055     29.62     28.59    -20.49     20.30
    8.9156     30.10     28.61    -20.03     20.30
    8.9258     29.60     28.63    -20.55     20.30
    8.9360     29.42     28.65    -20.76     20.30
    8.9461     29.64     28.67    -20.56     20.30
    8.9563     29.57     28.70    -20.65     20.30
    8.9665     29.89     28.72    -20.35     20.30
    8.9766     29.15     28.74    -21.12     20.30
    8.9868     29.61     28.76    -20.68     20.30
    8.9969     29.87     28.79    -20.44     20.30
    9.0071     30.12     28.81    -20.21     20.30
    9.0173     29.33     28.83    -21.03     20.30
    9.0274     29.38     28.86    -21.00     20.30
    9.0376     29.82     28.88    -20.58     20.30
    9.0478     29.39     28.90    -21.04     20.30
    9.0579     30.34     28.92    -20.11     20.30
    9.0681     31.23     28.95    -19.24     20.30
    9.0783     29.98     28.97    -20.52     20.30
    9.0884     29.41     28.99    -21.11     20.30
    9.0986     29.38     29.02    -21.16     20.30
    9.1088     30.08     29.04    -20.49     20.30
    9.1189     30.01     29.07    -20.58     20.30
    9.1291     29.83     29.09    -20.78     20.30
    9.1393     29.38     29.11    -21.26     20.30
    9.1494     30.15     29.14    -20.51     20.30
    9.1596     30.09     29.16    -20.60     20.30
    9.1697     30.41     29.18    -20.30     20.30
    9.1799     30.32     29.21    -20.41     20.30
    9.1901     30.36     29.23    -20.40     20.30
    9.2002     30.42     29.26    -20.36     20.30
    9.2104     30.08     29.28    -20.73     20.30
    9.2206     29.26     29.31    -21.57     20.30
    9.2307     29.99     29.33    -20.87     20.30
    9.2409     31.73     29.36    -19.15     20.30
    9.2511     30.81     29.38    -20.10     20.30
    9.2612     30.96     29.41    -19.97     20.30
    9.2714     30.69     29.43    -20.27     20.30
    9.2816     30.05     29.46    -20.93     20.30
    9.2917     30.95     29.48    -20.06     20.30
    9.3019     30.96     29.51    -20.07     20.30
    9.3120     30.59     29.53    -20.47     20.30
    9.3222     30.11     29.56    -20.97     20.30
    9.3324     30.83     29.58    -20.28     20.31
    9.3425     31.51     29.61    -19.62     20.31
    9.3527     30.83     29.63    -20.33     20.31
    9.3629     31.98     29.66    -19.20     20.31
    9.3730     30.54     29.69    -20.67     20.31
    9.3832     32.07     29.71    -19.17     20.31
    9.3934     31.73     29.74    -19.53     20.31
    9.4035     30.62     29.76    -20.67     20.31
    9.4137     31.16     29.79    -20.16     20.31
    9.4239     31.55     29.82    -19.79     20.31
    9.4340     31.04     29.84    -20.33     20.31
    9.4442     31.12     29.87    -20.27     20.31
    9.4544     31.60     29.90    -19.82     20.31
    9.4645     30.39     29.92    -21.06     20.31
    9.4747     31.86     29.95    -19.62     20.31
    9.4848     31.87     29.98    -19.63     20.31
    9.4950     31.26     30.01    -20.27     20.31
    9.5052     31.17     30.03    -20.39     20.31
    9.5153     30.61     30.06    -20.97     20.31
    9.5255     31.57     30.09    -20.04     20.31
    9.5357     31.40     30.11    -20.24     20.31
    9.5458     31.38     30.14    -20.29     20.31
    9.5560     31.65     30.17    -20.04     20.31
    9.5662     30.74     30.20    -20.98     20.31
    9.5763     32.24     30.23    -19.51     20.31
    9.5865     31.46     30.25    -20.32     20.31
    9.5967     30.99     30.28    -20.82     20.31
    9.6068     31.54     30.31    -20.29     20.31
    9.6170     31.01     30.34    -20.85     20.31
    9.6271     32.52     30.37    -19.37     20.31
    9.6373     31.99     30.39    -19.93     20.31
    9.6475     30.45     30.42    -21.50     20.31
    9.6576     31.19     30.45    -20.79     20.31
    9.6678     31.51     30.48    -20.49     20.31
    9.6780     31.36     30.51    -20.67     20.31
    9.6881     31.19     30.54    -20.87     20.31
    9.6983     31.77     30.57    -20.32     20.31
