 => TITLE: 
 => Data file name: C:\Users\stefano\Nextcloud2\uni\master-thesis\XRD\data\G305\G305--5-40-0.01-1000ms.xy
 => Instrm        :    1
 => Lambda(1&2)   :   1.54060  1.54060
 => Numb.of.points:      2951
 => Numb.of.peaks :         7
    2Theta     Yobs     Ycalc  Yobs-Ycal    Backg    Bragg     Posr  Intensity   FWHM    Eta
    6.0086     24.68     25.49    -22.33     20.00   18.5575      0.71     130.16  0.8037  0.6470
    6.0187     25.04     25.49    -21.98     20.00   20.4940      0.71      10.26  0.5248  0.6470
    6.0289     25.01     25.50    -22.01     20.00   22.4145      0.71      85.07  1.0723  0.6470
    6.0391     24.21     25.51    -22.82     20.00   28.3678      0.71      58.31  1.7529  0.6470
    6.0492     24.46     25.52    -22.58     20.00   29.8298      0.71      32.21  2.7524  0.6470
    6.0594     24.79     25.52    -22.26     20.00   33.3542      0.71      19.07  2.7524  0.6470
    6.0696     24.70     25.53    -22.36     20.00   19.5274      0.71    1204.87  8.5717  0.6470
    6.0797     24.29     25.54    -22.77     20.00
    6.0899     24.72     25.55    -22.35     20.00
    6.1001     24.35     25.56    -22.73     20.00
    6.1102     24.49     25.57    -22.60     20.00
    6.1204     24.20     25.57    -22.90     20.00
    6.1306     24.32     25.58    -22.79     20.00
    6.1407     24.40     25.59    -22.71     20.00
    6.1509     24.18     25.60    -22.94     20.00
    6.1611     24.45     25.61    -22.68     20.00
    6.1712     23.84     25.61    -23.30     20.00
    6.1814     24.26     25.62    -22.89     20.00
    6.1915     23.88     25.63    -23.27     20.00
    6.2017     24.03     25.64    -23.13     20.00
    6.2119     23.87     25.65    -23.30     20.00
    6.2220     24.30     25.66    -22.88     20.00
    6.2322     23.94     25.66    -23.25     20.00
    6.2424     23.80     25.67    -23.40     20.00
    6.2525     24.66     25.68    -22.54     20.00
    6.2627     23.66     25.69    -23.55     20.00
    6.2729     24.15     25.70    -23.07     20.00
    6.2830     24.28     25.71    -22.95     20.00
    6.2932     24.60     25.71    -22.64     20.00
    6.3034     23.36     25.72    -23.89     20.00
    6.3135     23.60     25.73    -23.66     20.00
    6.3237     23.59     25.74    -23.67     20.00
    6.3338     24.84     25.75    -22.43     20.00
    6.3440     24.73     25.76    -22.55     20.00
    6.3542     23.96     25.77    -23.33     20.00
    6.3643     24.35     25.77    -22.95     20.00
    6.3745     23.30     25.78    -24.01     20.00
    6.3847     23.27     25.79    -24.05     20.00
    6.3948     24.23     25.80    -23.09     20.00
    6.4050     23.91     25.81    -23.42     20.00
    6.4152     23.70     25.82    -23.64     20.00
    6.4253     24.16     25.83    -23.19     20.00
    6.4355     24.27     25.84    -23.09     20.00
    6.4457     23.38     25.84    -23.99     20.00
    6.4558     24.00     25.85    -23.38     20.00
    6.4660     23.90     25.86    -23.49     20.00
    6.4762     23.70     25.87    -23.69     20.00
    6.4863     23.93     25.88    -23.47     20.00
    6.4965     24.17     25.89    -23.24     20.00
    6.5066     23.94     25.90    -23.48     20.00
    6.5168     23.84     25.91    -23.59     20.00
    6.5270     23.93     25.92    -23.51     20.00
    6.5371     22.95     25.92    -24.50     20.00
    6.5473     23.12     25.93    -24.34     20.00
    6.5575     23.91     25.94    -23.56     20.00
    6.5676     24.20     25.95    -23.28     20.00
    6.5778     24.59     25.96    -22.90     20.00
    6.5880     24.02     25.97    -23.47     20.00
    6.5981     24.21     25.98    -23.29     20.00
    6.6083     24.17     25.99    -23.34     20.00
    6.6185     24.54     26.00    -22.98     20.00
    6.6286     24.49     26.01    -23.04     20.00
    6.6388     24.31     26.02    -23.23     20.00
    6.6489     24.59     26.03    -22.96     20.00
    6.6591     24.38     26.03    -23.18     20.00
    6.6693     23.68     26.04    -23.89     20.00
    6.6794     23.57     26.05    -24.01     20.00
    6.6896     24.78     26.06    -22.81     20.00
    6.6998     24.46     26.07    -23.14     20.00
    6.7099     24.46     26.08    -23.15     20.00
    6.7201     23.53     26.09    -24.09     20.00
    6.7303     25.36     26.10    -22.26     20.00
    6.7404     24.38     26.11    -23.25     20.00
    6.7506     23.39     26.12    -24.25     20.00
    6.7608     23.76     26.13    -23.89     20.00
    6.7709     24.01     26.14    -23.65     20.00
    6.7811     23.87     26.15    -23.80     20.00
    6.7913     24.43     26.16    -23.25     20.00
    6.8014     24.32     26.17    -23.37     20.00
    6.8116     23.98     26.18    -23.72     20.00
    6.8217     24.18     26.19    -23.53     20.00
    6.8319     22.94     26.20    -24.78     20.00
    6.8421     23.62     26.21    -24.11     20.00
    6.8522     24.19     26.22    -23.55     20.00
    6.8624     24.31     26.23    -23.44     20.00
    6.8726     24.38     26.24    -23.38     20.00
    6.8827     25.31     26.25    -22.46     20.00
    6.8929     24.70     26.26    -23.08     20.00
    6.9031     24.97     26.27    -22.82     20.00
    6.9132     23.93     26.28    -23.87     20.00
    6.9234     23.61     26.29    -24.20     20.00
    6.9336     23.90     26.30    -23.92     20.00
    6.9437     24.36     26.31    -23.47     20.00
    6.9539     24.58     26.32    -23.26     20.00
    6.9640     24.64     26.33    -23.21     20.00
    6.9742     24.35     26.34    -23.51     20.00
    6.9844     24.02     26.35    -23.85     20.00
    6.9945     24.35     26.36    -23.53     20.00
    7.0047     24.76     26.37    -23.13     20.00
    7.0149     24.35     26.38    -23.55     20.00
    7.0250     24.51     26.39    -23.40     20.00
    7.0352     24.78     26.40    -23.14     20.00
    7.0454     23.80     26.41    -24.13     20.00
    7.0555     24.70     26.42    -23.24     20.00
    7.0657     24.51     26.43    -23.44     20.00
    7.0759     24.20     26.44    -23.76     20.00
    7.0860     24.05     26.45    -23.92     20.00
    7.0962     25.04     26.46    -22.95     20.00
    7.1064     24.80     26.47    -23.20     20.00
    7.1165     25.11     26.48    -22.90     20.00
    7.1267     25.05     26.49    -22.97     20.00
    7.1368     24.51     26.50    -23.52     20.00
    7.1470     24.55     26.51    -23.49     20.00
    7.1572     24.93     26.53    -23.12     20.00
    7.1673     24.74     26.54    -23.32     20.00
    7.1775     25.26     26.55    -22.81     20.00
    7.1877     25.18     26.56    -22.90     20.00
    7.1978     25.03     26.57    -23.06     20.00
    7.2080     25.48     26.58    -22.62     20.00
    7.2182     25.16     26.59    -22.95     20.00
    7.2283     24.31     26.60    -23.82     20.00
    7.2385     24.27     26.61    -23.87     20.00
    7.2487     25.16     26.62    -22.99     20.00
    7.2588     24.41     26.63    -23.75     20.00
    7.2690     24.22     26.65    -23.95     20.00
    7.2791     25.06     26.66    -23.12     20.00
    7.2893     25.32     26.67    -22.87     20.00
    7.2995     25.57     26.68    -22.63     20.00
    7.3096     25.25     26.69    -22.96     20.00
    7.3198     25.34     26.70    -22.89     20.00
    7.3300     25.77     26.71    -22.47     20.00
    7.3401     26.04     26.72    -22.21     20.00
    7.3503     25.42     26.73    -22.84     20.00
    7.3605     24.62     26.75    -23.65     20.00
    7.3706     25.79     26.76    -22.49     20.00
    7.3808     24.51     26.77    -23.78     20.00
    7.3910     25.77     26.78    -22.53     20.00
    7.4011     25.38     26.79    -22.94     20.00
    7.4113     25.90     26.80    -22.43     20.00
    7.4215     25.30     26.82    -23.04     20.00
    7.4316     25.34     26.83    -23.01     20.00
    7.4418     25.52     26.84    -22.84     20.00
    7.4519     24.95     26.85    -23.42     20.00
    7.4621     25.12     26.86    -23.27     20.00
    7.4723     25.76     26.87    -22.64     20.00
    7.4824     24.71     26.89    -23.70     20.00
    7.4926     25.24     26.90    -23.18     20.00
    7.5028     24.85     26.91    -23.58     20.00
    7.5129     25.95     26.92    -22.50     20.00
    7.5231     26.25     26.93    -22.21     20.00
    7.5333     25.31     26.95    -23.16     20.00
    7.5434     25.09     26.96    -23.39     20.00
    7.5536     25.80     26.97    -22.69     20.00
    7.5638     26.45     26.98    -22.06     20.00
    7.5739     25.03     26.99    -23.49     20.00
    7.5841     25.90     27.01    -22.63     20.00
    7.5942     25.20     27.02    -23.34     20.00
    7.6044     25.68     27.03    -22.87     20.00
    7.6146     26.62     27.04    -21.95     20.00
    7.6247     25.74     27.05    -22.84     20.00
    7.6349     26.01     27.07    -22.58     20.00
    7.6451     26.16     27.08    -22.44     20.00
    7.6552     25.63     27.09    -22.99     20.00
    7.6654     24.76     27.10    -23.87     20.00
    7.6756     26.00     27.12    -22.64     20.00
    7.6857     25.89     27.13    -22.76     20.00
    7.6959     26.26     27.14    -22.41     20.00
    7.7061     26.25     27.15    -22.43     20.00
    7.7162     26.21     27.17    -22.48     20.00
    7.7264     25.78     27.18    -22.92     20.00
    7.7365     26.09     27.19    -22.63     20.00
    7.7467     27.25     27.21    -21.48     20.00
    7.7569     26.43     27.22    -22.31     20.00
    7.7670     26.20     27.23    -22.56     20.00
    7.7772     26.45     27.24    -22.32     20.00
    7.7874     26.66     27.26    -22.12     20.00
    7.7975     25.90     27.27    -22.89     20.00
    7.8077     26.32     27.28    -22.49     20.00
    7.8179     26.24     27.30    -22.58     20.00
    7.8280     25.88     27.31    -22.95     20.00
    7.8382     26.13     27.32    -22.72     20.00
    7.8484     26.83     27.34    -22.03     20.00
    7.8585     26.23     27.35    -22.64     20.00
    7.8687     26.56     27.36    -22.33     20.00
    7.8789     25.54     27.38    -23.36     20.00
    7.8890     26.43     27.39    -22.48     20.00
    7.8992     27.12     27.40    -21.81     20.00
    7.9093     26.48     27.42    -22.46     20.00
    7.9195     26.20     27.43    -22.75     20.00
    7.9297     27.01     27.44    -21.96     20.00
    7.9398     26.79     27.46    -22.19     20.00
    7.9500     26.51     27.47    -22.49     20.00
    7.9602     27.08     27.49    -21.93     20.00
    7.9703     26.48     27.50    -22.54     20.00
    7.9805     26.92     27.51    -22.12     20.00
    7.9907     26.82     27.53    -22.23     20.00
    8.0008     27.29     27.54    -21.77     20.00
    8.0110     27.29     27.55    -21.79     20.00
    8.0212     26.39     27.57    -22.70     20.00
    8.0313     27.56     27.58    -21.55     20.00
    8.0415     27.11     27.60    -22.01     20.00
    8.0516     26.87     27.61    -22.26     20.00
    8.0618     26.98     27.62    -22.17     20.00
    8.0720     27.41     27.64    -21.75     20.00
    8.0821     27.36     27.65    -21.82     20.00
    8.0923     27.07     27.67    -22.12     20.00
    8.1025     27.93     27.68    -21.28     20.00
    8.1126     27.32     27.70    -21.90     20.00
    8.1228     27.52     27.71    -21.72     20.00
    8.1330     27.63     27.73    -21.62     20.00
    8.1431     27.55     27.74    -21.71     20.00
    8.1533     26.53     27.75    -22.75     20.00
    8.1635     28.43     27.77    -20.86     20.00
    8.1736     27.16     27.78    -22.15     20.00
    8.1838     26.92     27.80    -22.40     20.00
    8.1940     27.98     27.81    -21.36     20.00
    8.2041     27.32     27.83    -22.03     20.00
    8.2143     27.37     27.84    -22.00     20.00
    8.2244     27.49     27.86    -21.89     20.00
    8.2346     27.59     27.87    -21.81     20.00
    8.2448     27.40     27.89    -22.01     20.00
    8.2549     27.35     27.90    -22.08     20.00
    8.2651     27.34     27.92    -22.10     20.00
    8.2753     27.82     27.93    -21.64     20.00
    8.2854     27.30     27.95    -22.17     20.00
    8.2956     27.76     27.97    -21.73     20.00
    8.3058     27.53     27.98    -21.97     20.00
    8.3159     27.97     28.00    -21.55     20.00
    8.3261     27.43     28.01    -22.11     20.00
    8.3363     27.90     28.03    -21.65     20.00
    8.3464     27.88     28.04    -21.69     20.00
    8.3566     28.52     28.06    -21.06     20.00
    8.3667     28.63     28.07    -20.97     20.00
    8.3769     28.18     28.09    -21.43     20.00
    8.3871     28.46     28.11    -21.17     20.00
    8.3972     28.38     28.12    -21.27     20.00
    8.4074     27.96     28.14    -21.70     20.00
    8.4176     29.32     28.15    -20.36     20.00
    8.4277     27.55     28.17    -22.14     20.00
    8.4379     28.09     28.19    -21.62     20.00
    8.4481     28.04     28.20    -21.69     20.00
    8.4582     28.00     28.22    -21.74     20.00
    8.4684     28.03     28.23    -21.73     20.00
    8.4786     27.82     28.25    -21.96     20.00
    8.4887     28.13     28.27    -21.66     20.00
    8.4989     28.90     28.28    -20.91     20.00
    8.5091     28.09     28.30    -21.73     20.00
    8.5192     27.41     28.32    -22.43     20.00
    8.5294     27.26     28.33    -22.60     20.00
    8.5395     28.25     28.35    -21.62     20.00
    8.5497     28.02     28.37    -21.87     20.00
    8.5599     28.40     28.38    -21.51     20.00
    8.5700     28.42     28.40    -21.51     20.00
    8.5802     30.01     28.42    -19.93     20.00
    8.5904     28.73     28.44    -21.23     20.00
    8.6005     29.41     28.45    -20.57     20.00
    8.6107     28.20     28.47    -21.79     20.00
    8.6209     28.50     28.49    -21.51     20.00
    8.6310     28.51     28.50    -21.52     20.00
    8.6412     28.68     28.52    -21.37     20.00
    8.6514     28.11     28.54    -21.95     20.00
    8.6615     28.18     28.56    -21.90     20.00
    8.6717     28.91     28.57    -21.19     20.00
    8.6818     28.65     28.59    -21.47     20.00
    8.6920     28.95     28.61    -21.18     20.00
    8.7022     28.55     28.63    -21.60     20.00
    8.7123     28.83     28.64    -21.34     20.00
    8.7225     28.70     28.66    -21.49     20.00
    8.7327     28.18     28.68    -22.02     20.00
    8.7428     29.66     28.70    -20.56     20.00
    8.7530     29.33     28.72    -20.91     20.00
    8.7632     28.32     28.73    -21.94     20.00
    8.7733     29.76     28.75    -20.52     20.00
    8.7835     29.58     28.77    -20.71     20.00
    8.7937     29.04     28.79    -21.27     20.00
    8.8038     29.20     28.81    -21.13     20.00
    8.8140     28.85     28.83    -21.50     20.00
    8.8242     29.37     28.84    -21.00     20.00
    8.8343     29.38     28.86    -21.01     20.00
    8.8445     28.94     28.88    -21.47     20.00
    8.8546     29.03     28.90    -21.39     20.00
    8.8648     30.46     28.92    -19.98     20.00
    8.8750     29.88     28.94    -20.58     20.00
    8.8851     29.05     28.96    -21.43     20.00
    8.8953     30.18     28.98    -20.32     20.00
    8.9055     29.62     28.99    -20.90     20.00
    8.9156     30.10     29.01    -20.44     20.00
    8.9258     29.60     29.03    -20.96     20.00
    8.9360     29.42     29.05    -21.16     20.00
    8.9461     29.64     29.07    -20.96     20.00
    8.9563     29.57     29.09    -21.05     20.00
    8.9665     29.89     29.11    -20.74     20.00
    8.9766     29.15     29.13    -21.50     20.00
    8.9868     29.61     29.15    -21.06     20.00
    8.9969     29.87     29.17    -20.82     20.00
    9.0071     30.12     29.19    -20.59     20.00
    9.0173     29.33     29.21    -21.40     20.00
    9.0274     29.38     29.23    -21.37     20.00
    9.0376     29.82     29.25    -20.95     20.00
    9.0478     29.39     29.27    -21.40     20.00
    9.0579     30.34     29.29    -20.47     20.00
    9.0681     31.23     29.31    -19.60     20.00
    9.0783     29.98     29.33    -20.87     20.00
    9.0884     29.41     29.35    -21.46     20.00
    9.0986     29.38     29.37    -21.52     20.00
    9.1088     30.08     29.39    -20.84     20.00
    9.1189     30.01     29.41    -20.93     20.00
    9.1291     29.83     29.43    -21.13     20.00
    9.1393     29.38     29.45    -21.60     20.00
    9.1494     30.15     29.47    -20.85     20.00
    9.1596     30.09     29.50    -20.93     20.00
    9.1697     30.41     29.52    -20.63     20.00
    9.1799     30.32     29.54    -20.74     20.00
    9.1901     30.36     29.56    -20.72     20.00
    9.2002     30.42     29.58    -20.68     20.00
    9.2104     30.08     29.60    -21.05     20.00
    9.2206     29.26     29.62    -21.89     20.00
    9.2307     29.99     29.64    -21.18     20.00
    9.2409     31.73     29.67    -19.46     20.00
    9.2511     30.81     29.69    -20.40     20.00
    9.2612     30.96     29.71    -20.27     20.00
    9.2714     30.69     29.73    -20.57     20.00
    9.2816     30.05     29.75    -21.23     20.00
    9.2917     30.95     29.78    -20.35     20.00
    9.3019     30.96     29.80    -20.36     20.00
    9.3120     30.59     29.82    -20.75     20.00
    9.3222     30.11     29.84    -21.26     20.00
    9.3324     30.83     29.86    -20.56     20.00
    9.3425     31.51     29.89    -19.90     20.00
    9.3527     30.83     29.91    -20.60     20.00
    9.3629     31.98     29.93    -19.48     20.00
    9.3730     30.54     29.95    -20.94     20.00
    9.3832     32.07     29.98    -19.43     20.00
    9.3934     31.73     30.00    -19.79     20.00
    9.4035     30.62     30.02    -20.93     20.00
    9.4137     31.16     30.05    -20.41     20.00
    9.4239     31.55     30.07    -20.04     20.00
    9.4340     31.04     30.09    -20.58     20.00
    9.4442     31.12     30.12    -20.52     20.00
    9.4544     31.60     30.14    -20.06     20.00
    9.4645     30.39     30.16    -21.30     20.00
    9.4747     31.86     30.19    -19.85     20.00
    9.4848     31.87     30.21    -19.86     20.00
    9.4950     31.26     30.23    -20.50     20.00
    9.5052     31.17     30.26    -20.61     20.00
    9.5153     30.61     30.28    -21.19     20.00
    9.5255     31.57     30.31    -20.26     20.00
    9.5357     31.40     30.33    -20.45     20.00
    9.5458     31.38     30.35    -20.50     20.00
    9.5560     31.65     30.38    -20.25     20.00
    9.5662     30.74     30.40    -21.19     20.00
    9.5763     32.24     30.43    -19.71     20.00
    9.5865     31.46     30.45    -20.52     20.00
    9.5967     30.99     30.48    -21.01     20.00
    9.6068     31.54     30.50    -20.48     20.00
    9.6170     31.01     30.53    -21.04     20.00
    9.6271     32.52     30.55    -19.55     20.00
    9.6373     31.99     30.58    -20.11     20.00
    9.6475     30.45     30.60    -21.67     20.00
    9.6576     31.19     30.63    -20.96     20.00
    9.6678     31.51     30.65    -20.67     20.00
    9.6780     31.36     30.68    -20.84     20.00
    9.6881     31.19     30.70    -21.04     20.00
    9.6983     31.77     30.73    -20.48     20.00
    9.7085     31.51     30.75    -20.77     20.00
    9.7186     31.91     30.78    -20.39     20.00
    9.7288     32.13     30.81    -20.20     20.00
    9.7390     31.59     30.83    -20.77     20.00
    9.7491     31.71     30.86    -20.67     20.00
    9.7593     31.52     30.88    -20.89     20.00
    9.7694     32.20     30.91    -20.23     20.00
