 => TITLE: 
 => Data file name: C:\Users\stefano\Nextcloud2\uni\master-thesis\XRD\data\G308\G308--5-40-0.01-1000ms.xy
 => Instrm        :    1
 => Lambda(1&2)   :   1.54060  1.54060
 => Numb.of.points:      2951
 => Numb.of.peaks :         7
    2Theta     Yobs     Ycalc  Yobs-Ycal    Backg    Bragg     Posr  Intensity   FWHM    Eta
    6.0086     21.43     22.89    -29.42     20.00   18.4803     -4.22     129.79  0.8334  0.4439
    6.0187     21.21     22.90    -29.65     20.00   20.3669     -4.22      12.03  0.6341  0.4439
    6.0289     20.90     22.90    -29.96     20.00   22.3524     -4.22      73.28  1.0166  0.4439
    6.0391     21.38     22.91    -29.49     20.00   28.2292     -4.22      66.59  1.9752  0.4439
    6.0492     20.75     22.91    -30.12     20.00   29.9603     -4.22      35.80  2.3048  0.4439
    6.0594     21.27     22.92    -29.61     20.00   33.1193     -4.22      28.90  2.3048  0.4439
    6.0696     21.48     22.92    -29.40     20.00   19.5649     -4.22    1133.61  8.8425  0.3398
    6.0797     21.33     22.93    -29.56     20.00
    6.0899     20.87     22.93    -30.02     20.00
    6.1001     21.26     22.94    -29.64     20.00
    6.1102     20.88     22.94    -30.02     20.00
    6.1204     21.79     22.95    -29.12     20.00
    6.1306     21.07     22.95    -29.84     20.00
    6.1407     20.57     22.96    -30.35     20.00
    6.1509     21.24     22.96    -29.68     20.00
    6.1611     21.07     22.97    -29.86     20.00
    6.1712     20.73     22.97    -30.20     20.00
    6.1814     20.27     22.98    -30.67     20.00
    6.1915     20.98     22.98    -29.96     20.00
    6.2017     20.35     22.99    -30.60     20.00
    6.2119     20.54     22.99    -30.41     20.00
    6.2220     20.77     23.00    -30.19     20.00
    6.2322     20.90     23.00    -30.06     20.00
    6.2424     20.30     23.01    -30.67     20.00
    6.2525     20.74     23.01    -30.24     20.00
    6.2627     20.38     23.02    -30.60     20.00
    6.2729     20.59     23.02    -30.40     20.00
    6.2830     20.49     23.03    -30.50     20.00
    6.2932     20.24     23.04    -30.76     20.00
    6.3034     20.97     23.04    -30.03     20.00
    6.3135     20.55     23.05    -30.46     20.00
    6.3237     20.46     23.05    -30.55     20.00
    6.3338     20.75     23.06    -30.27     20.00
    6.3440     20.83     23.06    -30.19     20.00
    6.3542     20.77     23.07    -30.26     20.00
    6.3643     20.00     23.07    -31.04     20.00
    6.3745     20.24     23.08    -30.80     20.00
    6.3847     20.15     23.08    -30.90     20.00
    6.3948     20.09     23.09    -30.96     20.00
    6.4050     19.77     23.10    -31.29     20.00
    6.4152     19.82     23.10    -31.24     20.00
    6.4253     20.35     23.11    -30.72     20.00
    6.4355     20.16     23.11    -30.92     20.00
    6.4457     20.63     23.12    -30.45     20.00
    6.4558     20.85     23.12    -30.24     20.00
    6.4660     20.16     23.13    -30.93     20.00
    6.4762     20.45     23.14    -30.65     20.00
    6.4863     19.65     23.14    -31.45     20.00
    6.4965     19.70     23.15    -31.41     20.00
    6.5066     20.48     23.15    -30.64     20.00
    6.5168     19.70     23.16    -31.42     20.00
    6.5270     20.46     23.17    -30.67     20.00
    6.5371     20.62     23.17    -30.51     20.00
    6.5473     19.85     23.18    -31.29     20.00
    6.5575     20.11     23.18    -31.04     20.00
    6.5676     20.18     23.19    -30.97     20.00
    6.5778     20.79     23.20    -30.37     20.00
    6.5880     20.58     23.20    -30.58     20.00
    6.5981     20.50     23.21    -30.67     20.00
    6.6083     20.72     23.21    -30.46     20.00
    6.6185     20.69     23.22    -30.49     20.00
    6.6286     20.32     23.23    -30.87     20.00
    6.6388     20.70     23.23    -30.50     20.00
    6.6489     20.26     23.24    -30.94     20.00
    6.6591     20.68     23.25    -30.53     20.00
    6.6693     20.27     23.25    -30.94     20.00
    6.6794     20.20     23.26    -31.02     20.00
    6.6896     20.78     23.26    -30.45     20.00
    6.6998     19.52     23.27    -31.71     20.00
    6.7099     20.86     23.28    -30.38     20.00
    6.7201     20.26     23.28    -30.99     20.00
    6.7303     19.84     23.29    -31.41     20.00
    6.7404     20.06     23.30    -31.20     20.00
    6.7506     20.55     23.30    -30.72     20.00
    6.7608     20.61     23.31    -30.66     20.00
    6.7709     20.01     23.32    -31.27     20.00
    6.7811     20.93     23.32    -30.35     20.00
    6.7913     20.40     23.33    -30.89     20.00
    6.8014     20.37     23.34    -30.93     20.00
    6.8116     20.47     23.34    -30.83     20.00
    6.8217     21.04     23.35    -30.27     20.00
    6.8319     20.98     23.36    -30.34     20.00
    6.8421     20.45     23.36    -30.87     20.00
    6.8522     20.32     23.37    -31.01     20.00
    6.8624     21.52     23.38    -29.82     20.00
    6.8726     20.51     23.38    -30.84     20.00
    6.8827     20.66     23.39    -30.69     20.00
    6.8929     20.40     23.40    -30.96     20.00
    6.9031     21.44     23.40    -29.93     20.00
    6.9132     20.83     23.41    -30.54     20.00
    6.9234     21.24     23.42    -30.14     20.00
    6.9336     20.87     23.43    -30.52     20.00
    6.9437     20.69     23.43    -30.70     20.00
    6.9539     20.54     23.44    -30.86     20.00
    6.9640     20.54     23.45    -30.87     20.00
    6.9742     20.62     23.45    -30.80     20.00
    6.9844     20.05     23.46    -31.37     20.00
    6.9945     21.17     23.47    -30.26     20.00
    7.0047     21.46     23.47    -29.98     20.00
    7.0149     21.57     23.48    -29.87     20.00
    7.0250     20.04     23.49    -31.41     20.00
    7.0352     21.11     23.50    -30.35     20.00
    7.0454     20.49     23.50    -30.98     20.00
    7.0555     20.27     23.51    -31.20     20.00
    7.0657     21.18     23.52    -30.30     20.00
    7.0759     21.49     23.53    -30.00     20.00
    7.0860     21.00     23.53    -30.50     20.00
    7.0962     20.60     23.54    -30.90     20.00
    7.1064     21.12     23.55    -30.39     20.00
    7.1165     21.41     23.56    -30.11     20.00
    7.1267     21.15     23.56    -30.38     20.00
    7.1368     21.21     23.57    -30.32     20.00
    7.1470     20.24     23.58    -31.30     20.00
    7.1572     20.90     23.59    -30.65     20.00
    7.1673     21.04     23.60    -30.52     20.00
    7.1775     20.55     23.60    -31.01     20.00
    7.1877     20.88     23.61    -30.69     20.00
    7.1978     21.14     23.62    -30.44     20.00
    7.2080     20.09     23.63    -31.50     20.00
    7.2182     21.19     23.63    -30.41     20.00
    7.2283     22.31     23.64    -29.29     20.00
    7.2385     20.20     23.65    -31.41     20.00
    7.2487     21.12     23.66    -30.50     20.00
    7.2588     21.07     23.67    -30.56     20.00
    7.2690     21.20     23.67    -30.44     20.00
    7.2791     21.16     23.68    -30.48     20.00
    7.2893     21.88     23.69    -29.77     20.00
    7.2995     20.68     23.70    -30.98     20.00
    7.3096     20.76     23.71    -30.91     20.00
    7.3198     21.31     23.72    -30.37     20.00
    7.3300     21.79     23.72    -29.90     20.00
    7.3401     21.03     23.73    -30.66     20.00
    7.3503     21.41     23.74    -30.29     20.00
    7.3605     21.30     23.75    -30.41     20.00
    7.3706     21.80     23.76    -29.92     20.00
    7.3808     22.07     23.77    -29.66     20.00
    7.3910     21.46     23.78    -30.28     20.00
    7.4011     21.49     23.78    -30.26     20.00
    7.4113     21.70     23.79    -30.05     20.00
    7.4215     21.28     23.80    -30.48     20.00
    7.4316     21.38     23.81    -30.39     20.00
    7.4418     21.63     23.82    -30.15     20.00
    7.4519     21.77     23.83    -30.02     20.00
    7.4621     21.63     23.84    -30.17     20.00
    7.4723     21.30     23.85    -30.51     20.00
    7.4824     22.10     23.85    -29.72     20.00
    7.4926     21.85     23.86    -29.98     20.00
    7.5028     21.55     23.87    -30.28     20.00
    7.5129     21.81     23.88    -30.03     20.00
    7.5231     21.40     23.89    -30.45     20.00
    7.5333     21.12     23.90    -30.74     20.00
    7.5434     22.20     23.91    -29.67     20.00
    7.5536     21.63     23.92    -30.25     20.00
    7.5638     22.36     23.93    -29.53     20.00
    7.5739     22.37     23.94    -29.53     20.00
    7.5841     21.48     23.95    -30.43     20.00
    7.5942     22.00     23.96    -29.92     20.00
    7.6044     22.40     23.96    -29.53     20.00
    7.6146     22.17     23.97    -29.77     20.00
    7.6247     22.09     23.98    -29.86     20.00
    7.6349     21.99     23.99    -29.97     20.00
    7.6451     22.58     24.00    -29.39     20.00
    7.6552     22.58     24.01    -29.39     20.00
    7.6654     21.62     24.02    -30.36     20.00
    7.6756     22.07     24.03    -29.92     20.00
    7.6857     22.17     24.04    -29.83     20.00
    7.6959     21.89     24.05    -30.12     20.00
    7.7061     22.46     24.06    -29.56     20.00
    7.7162     22.99     24.07    -29.04     20.00
    7.7264     21.86     24.08    -30.18     20.00
    7.7365     22.22     24.09    -29.83     20.00
    7.7467     22.46     24.10    -29.60     20.00
    7.7569     20.98     24.11    -31.09     20.00
    7.7670     22.62     24.12    -29.46     20.00
    7.7772     22.96     24.13    -29.13     20.00
    7.7874     21.55     24.14    -30.55     20.00
    7.7975     23.54     24.15    -28.58     20.00
    7.8077     22.93     24.16    -29.20     20.00
    7.8179     21.80     24.17    -30.34     20.00
    7.8280     22.10     24.18    -30.05     20.00
    7.8382     22.43     24.20    -29.73     20.00
    7.8484     21.96     24.21    -30.21     20.00
    7.8585     22.22     24.22    -29.96     20.00
    7.8687     22.24     24.23    -29.95     20.00
    7.8789     22.77     24.24    -29.43     20.00
    7.8890     22.46     24.25    -29.75     20.00
    7.8992     22.70     24.26    -29.52     20.00
    7.9093     22.97     24.27    -29.26     20.00
    7.9195     22.55     24.28    -29.69     20.00
    7.9297     22.80     24.29    -29.45     20.00
    7.9398     22.15     24.30    -30.12     20.00
    7.9500     23.04     24.31    -29.24     20.00
    7.9602     23.09     24.33    -29.20     20.00
    7.9703     23.46     24.34    -28.84     20.00
    7.9805     22.63     24.35    -29.68     20.00
    7.9907     22.91     24.36    -29.41     20.00
    8.0008     22.86     24.37    -29.47     20.00
    8.0110     22.98     24.38    -29.36     20.00
    8.0212     23.02     24.39    -29.34     20.00
    8.0313     22.35     24.41    -30.02     20.00
    8.0415     22.69     24.42    -29.69     20.00
    8.0516     23.07     24.43    -29.32     20.00
    8.0618     23.30     24.44    -29.10     20.00
    8.0720     22.43     24.45    -29.98     20.00
    8.0821     23.34     24.46    -29.09     20.00
    8.0923     23.02     24.48    -29.42     20.00
    8.1025     22.66     24.49    -29.79     20.00
    8.1126     23.15     24.50    -29.31     20.00
    8.1228     23.92     24.51    -28.55     20.00
    8.1330     22.87     24.52    -29.62     20.00
    8.1431     23.21     24.54    -29.29     20.00
    8.1533     22.85     24.55    -29.66     20.00
    8.1635     23.50     24.56    -29.02     20.00
    8.1736     23.45     24.57    -29.09     20.00
    8.1838     23.82     24.59    -28.73     20.00
    8.1940     22.66     24.60    -29.90     20.00
    8.2041     24.24     24.61    -28.33     20.00
    8.2143     24.01     24.62    -28.58     20.00
    8.2244     23.20     24.64    -29.40     20.00
    8.2346     23.41     24.65    -29.20     20.00
    8.2448     23.67     24.66    -28.95     20.00
    8.2549     23.71     24.67    -28.93     20.00
    8.2651     23.23     24.69    -29.42     20.00
    8.2753     23.57     24.70    -29.09     20.00
    8.2854     24.33     24.71    -28.35     20.00
    8.2956     24.02     24.73    -28.67     20.00
    8.3058     23.29     24.74    -29.41     20.00
    8.3159     24.13     24.75    -28.59     20.00
    8.3261     23.97     24.77    -28.76     20.00
    8.3363     22.73     24.78    -30.01     20.00
    8.3464     24.18     24.79    -28.58     20.00
    8.3566     23.85     24.81    -28.92     20.00
    8.3667     23.49     24.82    -29.29     20.00
    8.3769     23.84     24.83    -28.96     20.00
    8.3871     24.18     24.85    -28.63     20.00
    8.3972     23.27     24.86    -29.55     20.00
    8.4074     24.20     24.88    -28.64     20.00
    8.4176     23.80     24.89    -29.05     20.00
    8.4277     24.02     24.90    -28.85     20.00
    8.4379     24.29     24.92    -28.59     20.00
    8.4481     23.99     24.93    -28.90     20.00
    8.4582     24.45     24.95    -28.46     20.00
    8.4684     25.30     24.96    -27.62     20.00
    8.4786     24.09     24.97    -28.85     20.00
    8.4887     23.49     24.99    -29.46     20.00
    8.4989     24.46     25.00    -28.51     20.00
    8.5091     23.80     25.02    -29.18     20.00
    8.5192     24.67     25.03    -28.32     20.00
    8.5294     24.85     25.05    -28.16     20.00
    8.5395     24.12     25.06    -28.90     20.00
    8.5497     24.93     25.08    -28.11     20.00
    8.5599     24.94     25.09    -28.11     20.00
    8.5700     25.29     25.11    -27.78     20.00
    8.5802     24.53     25.12    -28.55     20.00
    8.5904     24.05     25.14    -29.05     20.00
    8.6005     24.66     25.15    -28.45     20.00
    8.6107     24.95     25.17    -28.18     20.00
    8.6209     24.38     25.18    -28.77     20.00
    8.6310     25.18     25.20    -27.98     20.00
    8.6412     24.43     25.21    -28.75     20.00
    8.6514     24.37     25.23    -28.82     20.00
    8.6615     24.60     25.25    -28.61     20.00
    8.6717     24.45     25.26    -28.77     20.00
    8.6818     25.28     25.28    -27.96     20.00
    8.6920     24.98     25.29    -28.28     20.00
    8.7022     24.84     25.31    -28.43     20.00
    8.7123     25.39     25.33    -27.90     20.00
    8.7225     24.92     25.34    -28.38     20.00
    8.7327     24.57     25.36    -28.75     20.00
    8.7428     25.69     25.37    -27.65     20.00
    8.7530     25.14     25.39    -28.21     20.00
    8.7632     25.05     25.41    -28.32     20.00
    8.7733     25.02     25.42    -28.37     20.00
    8.7835     25.72     25.44    -27.68     20.00
    8.7937     25.11     25.46    -28.31     20.00
    8.8038     25.73     25.47    -27.71     20.00
    8.8140     25.23     25.49    -28.22     20.00
    8.8242     25.03     25.51    -28.44     20.00
    8.8343     25.95     25.53    -27.54     20.00
    8.8445     26.33     25.54    -27.17     20.00
    8.8546     25.51     25.56    -28.01     20.00
    8.8648     25.72     25.58    -27.82     20.00
    8.8750     25.96     25.59    -27.60     20.00
    8.8851     25.68     25.61    -27.89     20.00
    8.8953     25.95     25.63    -27.64     20.00
    8.9055     25.13     25.65    -28.48     20.00
    8.9156     25.41     25.67    -28.22     20.00
    8.9258     25.54     25.68    -28.11     20.00
    8.9360     25.32     25.70    -28.34     20.00
    8.9461     25.74     25.72    -27.94     20.00
    8.9563     26.46     25.74    -27.24     20.00
    8.9665     25.57     25.76    -28.15     20.00
    8.9766     26.10     25.77    -27.64     20.00
    8.9868     25.97     25.79    -27.78     20.00
    8.9969     26.23     25.81    -27.54     20.00
    9.0071     25.57     25.83    -28.22     20.00
    9.0173     26.15     25.85    -27.66     20.00
    9.0274     26.14     25.87    -27.69     20.00
    9.0376     25.92     25.89    -27.93     20.00
    9.0478     26.71     25.91    -27.16     20.00
    9.0579     27.16     25.92    -26.73     20.00
    9.0681     26.41     25.94    -27.50     20.00
    9.0783     26.74     25.96    -27.18     20.00
    9.0884     26.73     25.98    -27.21     20.00
    9.0986     26.13     26.00    -27.83     20.00
    9.1088     26.06     26.02    -27.92     20.00
    9.1189     26.71     26.04    -27.29     20.00
    9.1291     26.31     26.06    -27.71     20.00
    9.1393     26.67     26.08    -27.37     20.00
    9.1494     26.77     26.10    -27.29     20.00
    9.1596     25.77     26.12    -28.31     20.00
    9.1697     26.62     26.14    -27.48     20.00
    9.1799     27.04     26.16    -27.08     20.00
    9.1901     26.77     26.18    -27.37     20.00
    9.2002     25.83     26.20    -28.33     20.00
    9.2104     26.98     26.22    -27.20     20.00
    9.2206     26.45     26.24    -27.76     20.00
    9.2307     26.67     26.26    -27.56     20.00
    9.2409     26.04     26.29    -28.21     20.00
    9.2511     26.15     26.31    -28.12     20.00
    9.2612     27.74     26.33    -26.55     20.00
    9.2714     27.78     26.35    -26.53     20.00
    9.2816     26.76     26.37    -27.57     20.00
    9.2917     27.25     26.39    -27.10     20.00
    9.3019     27.10     26.41    -27.27     20.00
    9.3120     27.23     26.43    -27.17     20.00
    9.3222     28.32     26.46    -26.10     20.00
    9.3324     26.76     26.48    -27.68     20.00
    9.3425     27.41     26.50    -27.05     20.00
    9.3527     27.15     26.52    -27.33     20.00
    9.3629     26.62     26.54    -27.89     20.00
    9.3730     26.81     26.57    -27.72     20.00
    9.3832     27.17     26.59    -27.38     20.00
    9.3934     27.22     26.61    -27.35     20.00
    9.4035     27.26     26.63    -27.34     20.00
    9.4137     27.03     26.66    -27.59     20.00
    9.4239     27.30     26.68    -27.34     20.00
    9.4340     27.24     26.70    -27.42     20.00
    9.4442     27.05     26.73    -27.64     20.00
    9.4544     26.98     26.75    -27.73     20.00
    9.4645     27.04     26.77    -27.69     20.00
    9.4747     28.19     26.80    -26.57     20.00
    9.4848     27.85     26.82    -26.93     20.00
    9.4950     27.78     26.84    -27.03     20.00
    9.5052     27.91     26.87    -26.92     20.00
    9.5153     27.21     26.89    -27.64     20.00
    9.5255     28.05     26.92    -26.83     20.00
    9.5357     28.17     26.94    -26.73     20.00
    9.5458     28.54     26.96    -26.39     20.00
    9.5560     26.54     26.99    -28.41     20.00
    9.5662     27.24     27.01    -27.73     20.00
    9.5763     27.99     27.04    -27.01     20.00
    9.5865     28.57     27.06    -26.45     20.00
    9.5967     27.38     27.09    -27.67     20.00
    9.6068     27.96     27.11    -27.11     20.00
    9.6170     28.18     27.14    -26.92     20.00
    9.6271     28.91     27.16    -26.21     20.00
    9.6373     28.48     27.19    -26.67     20.00
    9.6475     27.14     27.21    -28.04     20.00
    9.6576     29.18     27.24    -26.02     20.00
    9.6678     28.80     27.26    -26.43     20.00
    9.6780     27.58     27.29    -27.67     20.00
    9.6881     28.90     27.32    -26.38     20.00
    9.6983     29.28     27.34    -26.02     20.00
    9.7085     28.60     27.37    -26.73     20.00
    9.7186     28.21     27.40    -27.15     20.00
    9.7288     27.98     27.42    -27.40     20.00
    9.7390     27.88     27.45    -27.53     20.00
    9.7491     29.15     27.48    -26.29     20.00
    9.7593     28.13     27.50    -27.33     20.00
    9.7694     28.91     27.53    -26.58     20.00
