 => TITLE: 
 => Data file name: C:\Users\stefano\Nextcloud2\projects\programming\python\xrd-winplotr\folder\G105\G105--5-40-0.01-1000ms.xy
 => Instrm        :    1
 => Lambda(1&2)   :   1.54060  1.54060
 => Numb.of.points:      2951
 => Numb.of.peaks :         8
    2Theta     Yobs     Ycalc  Yobs-Ycal    Backg    Bragg     Posr  Intensity   FWHM    Eta
    6.2627     23.20     26.25    -30.05     25.38   18.6493     -2.25     153.01  0.8852  0.0658
    6.2729     23.52     26.25    -29.74     25.38   20.4670     -2.25      79.15  1.4942  0.0658
    6.2830     22.90     26.26    -30.36     25.38   22.5041     -2.25     105.31  1.1424  0.0658
    6.2932     22.88     26.26    -30.38     25.38   28.5326     -2.25      43.21  1.2797  0.0658
    6.3034     23.27     26.26    -30.00     25.38   30.0386     -2.25      35.23  3.1277  0.0658
    6.3135     23.41     26.27    -29.86     25.38   33.4325     -2.25      16.87  2.6277  0.0658
    6.3237     23.15     26.27    -30.12     25.38   17.2072     -2.25      47.98  2.1468  0.0658
    6.3338     22.77     26.27    -30.51     25.38   19.9467     -2.25     754.00 10.2371  0.0658
    6.3440     23.09     26.28    -30.19     25.38
    6.3542     22.51     26.28    -30.77     25.38
    6.3643     23.23     26.28    -30.06     25.37
    6.3745     22.64     26.29    -30.65     25.37
    6.3847     22.98     26.29    -30.31     25.37
    6.3948     22.84     26.29    -30.46     25.37
    6.4050     22.65     26.30    -30.65     25.37
    6.4152     22.80     26.30    -30.50     25.37
    6.4253     23.94     26.30    -29.37     25.37
    6.4355     23.43     26.31    -29.88     25.37
    6.4457     23.02     26.31    -30.30     25.37
    6.4558     23.70     26.31    -29.62     25.37
    6.4660     23.43     26.32    -29.89     25.37
    6.4762     22.63     26.32    -30.70     25.37
    6.4863     23.33     26.33    -30.00     25.37
    6.4965     23.05     26.33    -30.28     25.37
    6.5066     22.87     26.33    -30.47     25.37
    6.5168     22.79     26.34    -30.55     25.37
    6.5270     23.82     26.34    -29.53     25.36
    6.5371     23.76     26.35    -29.59     25.36
    6.5473     23.54     26.35    -29.81     25.36
    6.5575     23.39     26.35    -29.97     25.36
    6.5676     23.80     26.36    -29.56     25.36
    6.5778     23.03     26.36    -30.34     25.36
    6.5880     23.87     26.37    -29.50     25.36
    6.5981     23.22     26.37    -30.15     25.36
    6.6083     23.48     26.37    -29.90     25.36
    6.6185     23.84     26.38    -29.54     25.36
    6.6286     23.38     26.38    -30.01     25.36
    6.6388     23.24     26.39    -30.15     25.36
    6.6489     23.71     26.39    -29.68     25.36
    6.6591     23.88     26.40    -29.52     25.36
    6.6693     23.00     26.40    -30.40     25.36
    6.6794     24.11     26.40    -29.30     25.36
    6.6896     23.65     26.41    -29.76     25.35
    6.6998     22.68     26.41    -30.74     25.35
    6.7099     22.91     26.42    -30.51     25.35
    6.7201     23.46     26.42    -29.97     25.35
    6.7303     23.48     26.43    -29.95     25.35
    6.7404     23.27     26.43    -30.16     25.35
    6.7506     23.54     26.43    -29.90     25.35
    6.7608     23.03     26.44    -30.41     25.35
    6.7709     23.73     26.44    -29.72     25.35
    6.7811     23.13     26.45    -30.32     25.35
    6.7913     23.28     26.45    -30.18     25.35
    6.8014     23.63     26.46    -29.83     25.35
    6.8116     24.28     26.46    -29.19     25.35
    6.8217     23.24     26.47    -30.23     25.35
    6.8319     23.87     26.47    -29.61     25.35
    6.8421     23.49     26.48    -29.99     25.35
    6.8522     23.79     26.48    -29.70     25.34
    6.8624     24.15     26.49    -29.34     25.34
    6.8726     23.26     26.49    -30.24     25.34
    6.8827     23.88     26.50    -29.62     25.34
    6.8929     24.59     26.50    -28.92     25.34
    6.9031     23.37     26.51    -30.14     25.34
    6.9132     23.35     26.51    -30.17     25.34
    6.9234     23.87     26.52    -29.65     25.34
    6.9336     23.44     26.52    -30.09     25.34
    6.9437     23.48     26.53    -30.05     25.34
    6.9539     23.59     26.53    -29.95     25.34
    6.9640     23.45     26.54    -30.09     25.34
    6.9742     22.50     26.54    -31.05     25.34
    6.9844     24.38     26.55    -29.17     25.34
    6.9945     22.95     26.55    -30.61     25.34
    7.0047     23.50     26.56    -30.06     25.34
    7.0149     23.16     26.56    -30.41     25.33
    7.0250     23.27     26.57    -30.30     25.33
    7.0352     23.70     26.57    -29.88     25.33
    7.0454     23.66     26.58    -29.92     25.33
    7.0555     23.55     26.59    -30.04     25.33
    7.0657     24.23     26.59    -29.37     25.33
    7.0759     25.36     26.60    -28.24     25.33
    7.0860     23.25     26.60    -30.36     25.33
    7.0962     23.80     26.61    -29.81     25.33
    7.1064     24.45     26.61    -29.17     25.33
    7.1165     23.24     26.62    -30.38     25.33
    7.1267     24.49     26.63    -29.14     25.33
    7.1368     24.66     26.63    -28.97     25.33
    7.1470     23.99     26.64    -29.65     25.33
    7.1572     23.86     26.64    -29.79     25.33
    7.1673     24.10     26.65    -29.55     25.32
    7.1775     23.55     26.65    -30.11     25.32
    7.1877     24.44     26.66    -29.22     25.32
    7.1978     24.10     26.67    -29.57     25.32
    7.2080     24.03     26.67    -29.65     25.32
    7.2182     24.36     26.68    -29.32     25.32
    7.2283     24.57     26.68    -29.12     25.32
    7.2385     23.82     26.69    -29.87     25.32
    7.2487     24.69     26.70    -29.01     25.32
    7.2588     24.53     26.70    -29.18     25.32
    7.2690     24.21     26.71    -29.50     25.32
    7.2791     24.91     26.72    -28.81     25.32
    7.2893     25.04     26.72    -28.69     25.32
    7.2995     24.63     26.73    -29.10     25.32
    7.3096     24.65     26.74    -29.09     25.32
    7.3198     25.01     26.74    -28.74     25.32
    7.3300     24.94     26.75    -28.81     25.31
    7.3401     23.83     26.75    -29.93     25.31
    7.3503     24.60     26.76    -29.17     25.31
    7.3605     24.88     26.77    -28.89     25.31
    7.3706     24.87     26.77    -28.91     25.31
    7.3808     24.69     26.78    -29.10     25.31
    7.3910     24.95     26.79    -28.84     25.31
    7.4011     25.41     26.79    -28.39     25.31
    7.4113     24.66     26.80    -29.15     25.31
    7.4215     24.64     26.81    -29.17     25.31
    7.4316     25.29     26.82    -28.53     25.31
    7.4418     25.22     26.82    -28.61     25.31
    7.4519     24.52     26.83    -29.31     25.31
    7.4621     25.15     26.84    -28.69     25.31
    7.4723     25.16     26.84    -28.69     25.31
    7.4824     24.93     26.85    -28.92     25.31
    7.4926     24.65     26.86    -29.21     25.30
    7.5028     24.61     26.87    -29.26     25.30
    7.5129     25.54     26.87    -28.34     25.30
    7.5231     25.29     26.88    -28.59     25.30
    7.5333     25.12     26.89    -28.77     25.30
    7.5434     24.56     26.89    -29.34     25.30
    7.5536     25.85     26.90    -28.06     25.30
    7.5638     25.66     26.91    -28.25     25.30
    7.5739     24.85     26.92    -29.07     25.30
    7.5841     25.57     26.92    -28.36     25.30
    7.5942     25.43     26.93    -28.51     25.30
    7.6044     25.64     26.94    -28.30     25.30
    7.6146     25.55     26.95    -28.40     25.30
    7.6247     25.34     26.96    -28.62     25.30
    7.6349     24.35     26.96    -29.62     25.30
    7.6451     25.09     26.97    -28.89     25.30
    7.6552     25.05     26.98    -28.93     25.29
    7.6654     24.79     26.99    -29.20     25.29
    7.6756     24.75     27.00    -29.25     25.29
    7.6857     25.65     27.00    -28.36     25.29
    7.6959     25.07     27.01    -28.95     25.29
    7.7061     25.16     27.02    -28.86     25.29
    7.7162     26.49     27.03    -27.54     25.29
    7.7264     25.37     27.04    -28.67     25.29
    7.7365     25.02     27.04    -29.03     25.29
    7.7467     25.18     27.05    -28.88     25.29
    7.7569     25.74     27.06    -28.33     25.29
    7.7670     25.16     27.07    -28.91     25.29
    7.7772     25.45     27.08    -28.63     25.29
    7.7874     25.51     27.09    -28.58     25.29
    7.7975     25.55     27.10    -28.55     25.29
    7.8077     25.52     27.10    -28.59     25.29
    7.8179     25.09     27.11    -29.03     25.28
    7.8280     25.51     27.12    -28.62     25.28
    7.8382     26.44     27.13    -27.69     25.28
    7.8484     25.41     27.14    -28.73     25.28
    7.8585     26.47     27.15    -27.68     25.28
    7.8687     25.90     27.16    -28.26     25.28
    7.8789     25.69     27.17    -28.48     25.28
    7.8890     26.78     27.17    -27.40     25.28
    7.8992     26.09     27.18    -28.10     25.28
    7.9093     26.09     27.19    -28.11     25.28
    7.9195     26.36     27.20    -27.85     25.28
    7.9297     26.36     27.21    -27.86     25.28
    7.9398     26.88     27.22    -27.34     25.28
    7.9500     26.32     27.23    -27.91     25.28
    7.9602     26.48     27.24    -27.76     25.28
    7.9703     25.93     27.25    -28.32     25.28
    7.9805     26.30     27.26    -27.96     25.27
    7.9907     25.84     27.27    -28.43     25.27
    8.0008     26.12     27.28    -28.16     25.27
    8.0110     26.52     27.29    -27.77     25.27
    8.0212     26.60     27.30    -27.70     25.27
    8.0313     25.73     27.31    -28.58     25.27
    8.0415     26.74     27.32    -27.58     25.27
    8.0516     26.90     27.33    -27.43     25.27
    8.0618     25.13     27.34    -29.21     25.27
    8.0720     26.23     27.35    -28.12     25.27
    8.0821     25.52     27.36    -28.84     25.27
    8.0923     25.65     27.37    -28.72     25.27
    8.1025     25.96     27.38    -28.42     25.27
    8.1126     26.51     27.39    -27.88     25.27
    8.1228     26.03     27.40    -28.37     25.27
    8.1330     26.23     27.41    -28.18     25.27
    8.1431     26.55     27.42    -27.87     25.26
    8.1533     25.74     27.43    -28.69     25.26
    8.1635     26.30     27.44    -28.14     25.26
    8.1736     25.69     27.45    -28.76     25.26
    8.1838     26.00     27.46    -28.46     25.26
    8.1940     27.26     27.47    -27.22     25.26
    8.2041     26.62     27.48    -27.87     25.26
    8.2143     26.59     27.49    -27.91     25.26
    8.2244     27.26     27.50    -27.25     25.26
    8.2346     25.96     27.51    -28.56     25.26
    8.2448     27.32     27.53    -27.21     25.26
    8.2549     26.95     27.54    -27.59     25.26
    8.2651     27.27     27.55    -27.28     25.26
    8.2753     27.96     27.56    -26.60     25.26
    8.2854     27.30     27.57    -27.27     25.26
    8.2956     27.48     27.58    -27.11     25.26
    8.3058     27.37     27.59    -27.23     25.25
    8.3159     27.07     27.60    -27.54     25.25
    8.3261     26.74     27.62    -27.88     25.25
    8.3363     27.36     27.63    -27.27     25.25
    8.3464     27.27     27.64    -27.37     25.25
    8.3566     26.74     27.65    -27.91     25.25
    8.3667     27.13     27.66    -27.54     25.25
    8.3769     28.13     27.67    -26.55     25.25
    8.3871     27.32     27.69    -27.37     25.25
    8.3972     26.96     27.70    -27.74     25.25
    8.4074     27.51     27.71    -27.20     25.25
    8.4176     26.94     27.72    -27.79     25.25
    8.4277     26.91     27.73    -27.83     25.25
    8.4379     27.88     27.75    -26.87     25.25
    8.4481     27.38     27.76    -27.38     25.25
    8.4582     27.31     27.77    -27.47     25.25
    8.4684     28.52     27.78    -26.27     25.24
    8.4786     27.26     27.80    -27.54     25.24
    8.4887     27.29     27.81    -27.52     25.24
    8.4989     27.54     27.82    -27.29     25.24
    8.5091     28.07     27.83    -26.77     25.24
    8.5192     27.34     27.85    -27.51     25.24
    8.5294     28.24     27.86    -26.62     25.24
    8.5395     28.29     27.87    -26.59     25.24
    8.5497     27.63     27.89    -27.26     25.24
    8.5599     28.18     27.90    -26.72     25.24
    8.5700     27.89     27.91    -27.03     25.24
    8.5802     27.93     27.92    -27.00     25.24
    8.5904     27.55     27.94    -27.39     25.24
    8.6005     27.93     27.95    -27.03     25.24
    8.6107     27.25     27.96    -27.72     25.24
    8.6209     27.66     27.98    -27.32     25.24
    8.6310     28.26     27.99    -26.74     25.23
    8.6412     28.07     28.01    -26.94     25.23
    8.6514     27.07     28.02    -27.95     25.23
    8.6615     28.23     28.03    -26.81     25.23
    8.6717     27.87     28.05    -27.18     25.23
    8.6818     27.38     28.06    -27.68     25.23
    8.6920     27.87     28.07    -27.21     25.23
    8.7022     27.47     28.09    -27.62     25.23
    8.7123     28.19     28.10    -26.92     25.23
    8.7225     28.10     28.12    -27.02     25.23
    8.7327     28.10     28.13    -27.03     25.23
    8.7428     28.32     28.14    -26.83     25.23
    8.7530     28.07     28.16    -27.09     25.23
    8.7632     28.62     28.17    -26.56     25.23
    8.7733     28.23     28.19    -26.96     25.23
    8.7835     28.46     28.20    -26.75     25.23
    8.7937     28.48     28.22    -26.74     25.22
    8.8038     28.30     28.23    -26.94     25.22
    8.8140     28.46     28.25    -26.79     25.22
    8.8242     28.48     28.26    -26.79     25.22
    8.8343     28.80     28.28    -26.48     25.22
    8.8445     29.07     28.29    -26.23     25.22
    8.8546     27.93     28.31    -27.38     25.22
    8.8648     28.39     28.32    -26.94     25.22
    8.8750     28.71     28.34    -26.63     25.22
    8.8851     28.16     28.35    -27.20     25.22
    8.8953     28.23     28.37    -27.14     25.22
    8.9055     27.50     28.38    -27.89     25.22
    8.9156     27.92     28.40    -27.48     25.22
    8.9258     28.44     28.42    -26.98     25.22
    8.9360     28.97     28.43    -26.46     25.22
    8.9461     28.98     28.45    -26.47     25.22
    8.9563     28.84     28.46    -26.63     25.21
    8.9665     29.21     28.48    -26.27     25.21
    8.9766     28.24     28.49    -27.26     25.21
    8.9868     29.11     28.51    -26.40     25.21
    8.9969     29.03     28.53    -26.50     25.21
    9.0071     29.50     28.54    -26.05     25.21
    9.0173     29.43     28.56    -26.13     25.21
    9.0274     28.84     28.58    -26.74     25.21
    9.0376     28.62     28.59    -26.98     25.21
    9.0478     29.41     28.61    -26.20     25.21
    9.0579     30.03     28.63    -25.60     25.21
    9.0681     28.56     28.64    -27.09     25.21
    9.0783     28.47     28.66    -27.19     25.21
    9.0884     29.79     28.68    -25.89     25.21
    9.0986     29.53     28.69    -26.17     25.21
    9.1088     29.78     28.71    -25.94     25.21
    9.1189     28.84     28.73    -26.89     25.20
    9.1291     29.20     28.75    -26.55     25.20
    9.1393     29.26     28.76    -26.51     25.20
    9.1494     29.21     28.78    -26.57     25.20
    9.1596     29.76     28.80    -26.04     25.20
    9.1697     29.89     28.82    -25.93     25.20
    9.1799     29.48     28.83    -26.36     25.20
    9.1901     28.59     28.85    -27.27     25.20
    9.2002     29.90     28.87    -25.97     25.20
    9.2104     30.08     28.89    -25.81     25.20
    9.2206     28.73     28.91    -27.18     25.20
    9.2307     29.84     28.92    -26.09     25.20
    9.2409     28.93     28.94    -27.02     25.20
    9.2511     28.31     28.96    -27.65     25.20
    9.2612     29.46     28.98    -26.52     25.20
    9.2714     29.58     29.00    -26.42     25.20
    9.2816     29.38     29.02    -26.64     25.19
    9.2917     29.79     29.03    -26.25     25.19
    9.3019     29.81     29.05    -26.25     25.19
    9.3120     29.90     29.07    -26.18     25.19
    9.3222     29.80     29.09    -26.30     25.19
    9.3324     30.21     29.11    -25.90     25.19
    9.3425     29.67     29.13    -26.46     25.19
    9.3527     30.17     29.15    -25.98     25.19
    9.3629     30.33     29.17    -25.84     25.19
    9.3730     29.83     29.19    -26.36     25.19
    9.3832     30.35     29.21    -25.86     25.19
    9.3934     29.89     29.23    -26.34     25.19
    9.4035     29.98     29.25    -26.27     25.19
    9.4137     30.16     29.27    -26.11     25.19
    9.4239     29.96     29.29    -26.33     25.19
    9.4340     29.94     29.31    -26.37     25.19
    9.4442     30.06     29.33    -26.27     25.18
    9.4544     30.59     29.35    -25.76     25.18
    9.4645     29.86     29.37    -26.51     25.18
    9.4747     29.01     29.39    -27.38     25.18
    9.4848     30.97     29.41    -25.44     25.18
    9.4950     30.65     29.43    -25.78     25.18
    9.5052     30.43     29.45    -26.02     25.18
    9.5153     30.34     29.47    -26.13     25.18
    9.5255     29.63     29.49    -26.86     25.18
    9.5357     30.04     29.51    -26.48     25.18
    9.5458     31.09     29.53    -25.45     25.18
    9.5560     30.41     29.55    -26.15     25.18
    9.5662     29.95     29.57    -26.63     25.18
    9.5763     31.29     29.60    -25.31     25.18
    9.5865     29.50     29.62    -27.12     25.18
    9.5967     29.48     29.64    -27.16     25.18
    9.6068     30.23     29.66    -26.43     25.17
    9.6170     30.16     29.68    -26.53     25.17
    9.6271     30.21     29.70    -26.50     25.17
    9.6373     30.63     29.73    -26.10     25.17
    9.6475     30.00     29.75    -26.75     25.17
    9.6576     30.46     29.77    -26.31     25.17
    9.6678     30.55     29.79    -26.25     25.17
    9.6780     30.24     29.82    -26.58     25.17
    9.6881     30.63     29.84    -26.21     25.17
    9.6983     30.20     29.86    -26.66     25.17
    9.7085     31.86     29.88    -25.03     25.17
    9.7186     30.43     29.91    -26.48     25.17
    9.7288     30.32     29.93    -26.61     25.17
    9.7390     30.07     29.95    -26.89     25.17
    9.7491     30.55     29.97    -26.43     25.17
    9.7593     31.02     30.00    -25.98     25.17
    9.7694     30.39     30.02    -26.63     25.16
    9.7796     31.27     30.04    -25.78     25.16
    9.7898     30.82     30.07    -26.25     25.16
    9.7999     30.80     30.09    -26.30     25.16
    9.8101     30.05     30.12    -27.07     25.16
    9.8203     30.42     30.14    -26.72     25.16
    9.8304     30.76     30.16    -26.41     25.16
    9.8406     30.62     30.19    -26.57     25.16
    9.8508     31.21     30.21    -26.01     25.16
    9.8609     30.97     30.24    -26.27     25.16
    9.8711     31.57     30.26    -25.69     25.16
    9.8813     32.09     30.28    -25.20     25.16
    9.8914     31.38     30.31    -25.93     25.16
    9.9016     31.27     30.33    -26.07     25.16
    9.9118     30.68     30.36    -26.68     25.16
    9.9219     31.32     30.38    -26.07     25.16
    9.9321     30.70     30.41    -26.71     25.15
    9.9422     31.31     30.43    -26.13     25.15
    9.9524     31.22     30.46    -26.24     25.15
    9.9626     32.29     30.48    -25.20     25.15
    9.9727     31.29     30.51    -26.22     25.15
    9.9829     31.50     30.53    -26.04     25.15
    9.9931     31.18     30.56    -26.38     25.15
   10.0032     30.86     30.59    -26.73     25.15
   10.0134     30.99     30.61    -26.63     25.15
