 => TITLE: 
 => Data file name: C:\Users\stefano\Nextcloud2\uni\master-thesis\XRD\data\G105\G105--5-40-0.01-1000ms.xy
 => Instrm        :    1
 => Lambda(1&2)   :   1.54060  1.54060
 => Numb.of.points:      2951
 => Numb.of.peaks :         7
    2Theta     Yobs     Ycalc  Yobs-Ycal    Backg    Bragg     Posr  Intensity   FWHM    Eta
    6.0086     23.76     24.95    -28.20     20.00   18.6377     -2.25     149.78  0.7128  0.6484
    6.0187     24.04     24.96    -27.93     20.00   20.6001     -2.25      26.89  0.6388  0.6484
    6.0289     23.42     24.97    -28.55     20.00   22.5187     -2.25     111.53  1.0007  0.6484
    6.0391     23.78     24.98    -28.20     20.00   28.5278     -2.25      65.46  1.3764  0.6484
    6.0492     23.98     24.98    -28.01     20.00   30.0909     -2.25      28.41  2.6480  0.6484
    6.0594     23.67     24.99    -28.32     20.00   33.4064     -2.25      19.02  2.6480  0.6484
    6.0696     23.58     25.00    -28.42     20.00   19.6069     -2.25    1087.40  8.6229  0.6484
    6.0797     23.40     25.01    -28.61     20.00
    6.0899     23.81     25.01    -28.21     20.00
    6.1001     24.00     25.02    -28.02     20.00
    6.1102     23.20     25.03    -28.83     20.00
    6.1204     23.49     25.03    -28.55     20.00
    6.1306     23.11     25.04    -28.94     20.00
    6.1407     23.98     25.05    -28.07     20.00
    6.1509     23.38     25.06    -28.68     20.00
    6.1611     22.83     25.06    -29.24     20.00
    6.1712     23.63     25.07    -28.44     20.00
    6.1814     23.39     25.08    -28.69     20.00
    6.1915     23.49     25.09    -28.60     20.00
    6.2017     23.38     25.09    -28.72     20.00
    6.2119     23.13     25.10    -28.97     20.00
    6.2220     23.18     25.11    -28.93     20.00
    6.2322     23.07     25.12    -29.05     20.00
    6.2424     22.69     25.12    -29.44     20.00
    6.2525     23.31     25.13    -28.82     20.00
    6.2627     23.20     25.14    -28.94     20.00
    6.2729     23.52     25.15    -28.63     20.00
    6.2830     22.90     25.15    -29.26     20.00
    6.2932     22.88     25.16    -29.28     20.00
    6.3034     23.27     25.17    -28.90     20.00
    6.3135     23.41     25.18    -28.77     20.00
    6.3237     23.15     25.18    -29.04     20.00
    6.3338     22.77     25.19    -29.43     20.00
    6.3440     23.09     25.20    -29.11     20.00
    6.3542     22.51     25.21    -29.70     20.00
    6.3643     23.23     25.21    -28.99     20.00
    6.3745     22.64     25.22    -29.59     20.00
    6.3847     22.98     25.23    -29.25     20.00
    6.3948     22.84     25.24    -29.40     20.00
    6.4050     22.65     25.25    -29.60     20.00
    6.4152     22.80     25.25    -29.46     20.00
    6.4253     23.94     25.26    -28.33     20.00
    6.4355     23.43     25.27    -28.84     20.00
    6.4457     23.02     25.28    -29.26     20.00
    6.4558     23.70     25.29    -28.59     20.00
    6.4660     23.43     25.29    -28.87     20.00
    6.4762     22.63     25.30    -29.68     20.00
    6.4863     23.33     25.31    -28.98     20.00
    6.4965     23.05     25.32    -29.27     20.00
    6.5066     22.87     25.33    -29.46     20.00
    6.5168     22.79     25.33    -29.55     20.00
    6.5270     23.82     25.34    -28.53     20.00
    6.5371     23.76     25.35    -28.59     20.00
    6.5473     23.54     25.36    -28.82     20.00
    6.5575     23.39     25.37    -28.98     20.00
    6.5676     23.80     25.37    -28.58     20.00
    6.5778     23.03     25.38    -29.36     20.00
    6.5880     23.87     25.39    -28.52     20.00
    6.5981     23.22     25.40    -29.18     20.00
    6.6083     23.48     25.41    -28.93     20.00
    6.6185     23.84     25.41    -28.58     20.00
    6.6286     23.38     25.42    -29.05     20.00
    6.6388     23.24     25.43    -29.20     20.00
    6.6489     23.71     25.44    -28.73     20.00
    6.6591     23.88     25.45    -28.57     20.00
    6.6693     23.00     25.46    -29.46     20.00
    6.6794     24.11     25.46    -28.36     20.00
    6.6896     23.65     25.47    -28.83     20.00
    6.6998     22.68     25.48    -29.81     20.00
    6.7099     22.91     25.49    -29.58     20.00
    6.7201     23.46     25.50    -29.04     20.00
    6.7303     23.48     25.51    -29.03     20.00
    6.7404     23.27     25.52    -29.25     20.00
    6.7506     23.54     25.52    -28.99     20.00
    6.7608     23.03     25.53    -29.51     20.00
    6.7709     23.73     25.54    -28.82     20.00
    6.7811     23.13     25.55    -29.42     20.00
    6.7913     23.28     25.56    -29.28     20.00
    6.8014     23.63     25.57    -28.94     20.00
    6.8116     24.28     25.58    -28.30     20.00
    6.8217     23.24     25.58    -29.35     20.00
    6.8319     23.87     25.59    -28.73     20.00
    6.8421     23.49     25.60    -29.12     20.00
    6.8522     23.79     25.61    -28.83     20.00
    6.8624     24.15     25.62    -28.47     20.00
    6.8726     23.26     25.63    -29.37     20.00
    6.8827     23.88     25.64    -28.76     20.00
    6.8929     24.59     25.65    -28.06     20.00
    6.9031     23.37     25.66    -29.29     20.00
    6.9132     23.35     25.66    -29.32     20.00
    6.9234     23.87     25.67    -28.81     20.00
    6.9336     23.44     25.68    -29.25     20.00
    6.9437     23.48     25.69    -29.22     20.00
    6.9539     23.59     25.70    -29.11     20.00
    6.9640     23.45     25.71    -29.26     20.00
    6.9742     22.50     25.72    -30.22     20.00
    6.9844     24.38     25.73    -28.35     20.00
    6.9945     22.95     25.74    -29.79     20.00
    7.0047     23.50     25.75    -29.25     20.00
    7.0149     23.16     25.76    -29.60     20.00
    7.0250     23.27     25.76    -29.50     20.00
    7.0352     23.70     25.77    -29.08     20.00
    7.0454     23.66     25.78    -29.13     20.00
    7.0555     23.55     25.79    -29.25     20.00
    7.0657     24.23     25.80    -28.58     20.00
    7.0759     25.36     25.81    -27.46     20.00
    7.0860     23.25     25.82    -29.57     20.00
    7.0962     23.80     25.83    -29.03     20.00
    7.1064     24.45     25.84    -28.39     20.00
    7.1165     23.24     25.85    -29.61     20.00
    7.1267     24.49     25.86    -28.37     20.00
    7.1368     24.66     25.87    -28.21     20.00
    7.1470     23.99     25.88    -28.89     20.00
    7.1572     23.86     25.89    -29.03     20.00
    7.1673     24.10     25.90    -28.80     20.00
    7.1775     23.55     25.91    -29.36     20.00
    7.1877     24.44     25.92    -28.48     20.00
    7.1978     24.10     25.93    -28.83     20.00
    7.2080     24.03     25.94    -28.91     20.00
    7.2182     24.36     25.95    -28.59     20.00
    7.2283     24.57     25.96    -28.39     20.00
    7.2385     23.82     25.97    -29.15     20.00
    7.2487     24.69     25.98    -28.29     20.00
    7.2588     24.53     25.98    -28.46     20.00
    7.2690     24.21     25.99    -28.79     20.00
    7.2791     24.91     26.00    -28.10     20.00
    7.2893     25.04     26.01    -27.98     20.00
    7.2995     24.63     26.02    -28.40     20.00
    7.3096     24.65     26.03    -28.39     20.00
    7.3198     25.01     26.04    -28.04     20.00
    7.3300     24.94     26.05    -28.12     20.00
    7.3401     23.83     26.07    -29.24     20.00
    7.3503     24.60     26.08    -28.48     20.00
    7.3605     24.88     26.09    -28.21     20.00
    7.3706     24.87     26.10    -28.23     20.00
    7.3808     24.69     26.11    -28.42     20.00
    7.3910     24.95     26.12    -28.17     20.00
    7.4011     25.41     26.13    -27.72     20.00
    7.4113     24.66     26.14    -28.48     20.00
    7.4215     24.64     26.15    -28.51     20.00
    7.4316     25.29     26.16    -27.87     20.00
    7.4418     25.22     26.17    -27.95     20.00
    7.4519     24.52     26.18    -28.66     20.00
    7.4621     25.15     26.19    -28.04     20.00
    7.4723     25.16     26.20    -28.04     20.00
    7.4824     24.93     26.21    -28.28     20.00
    7.4926     24.65     26.22    -28.57     20.00
    7.5028     24.61     26.23    -28.63     20.00
    7.5129     25.54     26.24    -27.71     20.00
    7.5231     25.29     26.25    -27.97     20.00
    7.5333     25.12     26.26    -28.15     20.00
    7.5434     24.56     26.27    -28.72     20.00
    7.5536     25.85     26.28    -27.44     20.00
    7.5638     25.66     26.30    -27.64     20.00
    7.5739     24.85     26.31    -28.46     20.00
    7.5841     25.57     26.32    -27.75     20.00
    7.5942     25.43     26.33    -27.90     20.00
    7.6044     25.64     26.34    -27.70     20.00
    7.6146     25.55     26.35    -27.80     20.00
    7.6247     25.34     26.36    -28.03     20.00
    7.6349     24.35     26.37    -29.03     20.00
    7.6451     25.09     26.38    -28.30     20.00
    7.6552     25.05     26.39    -28.35     20.00
    7.6654     24.79     26.41    -28.62     20.00
    7.6756     24.75     26.42    -28.67     20.00
    7.6857     25.65     26.43    -27.78     20.00
    7.6959     25.07     26.44    -28.37     20.00
    7.7061     25.16     26.45    -28.29     20.00
    7.7162     26.49     26.46    -26.98     20.00
    7.7264     25.37     26.47    -28.11     20.00
    7.7365     25.02     26.48    -28.47     20.00
    7.7467     25.18     26.50    -28.32     20.00
    7.7569     25.74     26.51    -27.77     20.00
    7.7670     25.16     26.52    -28.36     20.00
    7.7772     25.45     26.53    -28.09     20.00
    7.7874     25.51     26.54    -28.04     20.00
    7.7975     25.55     26.55    -28.01     20.00
    7.8077     25.52     26.57    -28.05     20.00
    7.8179     25.09     26.58    -28.49     20.00
    7.8280     25.51     26.59    -28.08     20.00
    7.8382     26.44     26.60    -27.17     20.00
    7.8484     25.41     26.61    -28.21     20.00
    7.8585     26.47     26.62    -27.16     20.00
    7.8687     25.90     26.64    -27.74     20.00
    7.8789     25.69     26.65    -27.96     20.00
    7.8890     26.78     26.66    -26.88     20.00
    7.8992     26.09     26.67    -27.59     20.00
    7.9093     26.09     26.68    -27.60     20.00
    7.9195     26.36     26.70    -27.34     20.00
    7.9297     26.36     26.71    -27.35     20.00
    7.9398     26.88     26.72    -26.85     20.00
    7.9500     26.32     26.73    -27.42     20.00
    7.9602     26.48     26.75    -27.27     20.00
    7.9703     25.93     26.76    -27.83     20.00
    7.9805     26.30     26.77    -27.47     20.00
    7.9907     25.84     26.78    -27.95     20.00
    8.0008     26.12     26.80    -27.68     20.00
    8.0110     26.52     26.81    -27.29     20.00
    8.0212     26.60     26.82    -27.22     20.00
    8.0313     25.73     26.83    -28.11     20.00
    8.0415     26.74     26.85    -27.11     20.00
    8.0516     26.90     26.86    -26.96     20.00
    8.0618     25.13     26.87    -28.74     20.00
    8.0720     26.23     26.88    -27.66     20.00
    8.0821     25.52     26.90    -28.38     20.00
    8.0923     25.65     26.91    -28.26     20.00
    8.1025     25.96     26.92    -27.97     20.00
    8.1126     26.51     26.93    -27.43     20.00
    8.1228     26.03     26.95    -27.92     20.00
    8.1330     26.23     26.96    -27.73     20.00
    8.1431     26.55     26.97    -27.43     20.00
    8.1533     25.74     26.99    -28.25     20.00
    8.1635     26.30     27.00    -27.70     20.00
    8.1736     25.69     27.01    -28.33     20.00
    8.1838     26.00     27.03    -28.03     20.00
    8.1940     27.26     27.04    -26.78     20.00
    8.2041     26.62     27.05    -27.44     20.00
    8.2143     26.59     27.07    -27.48     20.00
    8.2244     27.26     27.08    -26.82     20.00
    8.2346     25.96     27.09    -28.14     20.00
    8.2448     27.32     27.11    -26.79     20.00
    8.2549     26.95     27.12    -27.17     20.00
    8.2651     27.27     27.13    -26.87     20.00
    8.2753     27.96     27.15    -26.19     20.00
    8.2854     27.30     27.16    -26.86     20.00
    8.2956     27.48     27.17    -26.70     20.00
    8.3058     27.37     27.19    -26.82     20.00
    8.3159     27.07     27.20    -27.14     20.00
    8.3261     26.74     27.22    -27.48     20.00
    8.3363     27.36     27.23    -26.87     20.00
    8.3464     27.27     27.24    -26.98     20.00
    8.3566     26.74     27.26    -27.52     20.00
    8.3667     27.13     27.27    -27.15     20.00
    8.3769     28.13     27.29    -26.16     20.00
    8.3871     27.32     27.30    -26.98     20.00
    8.3972     26.96     27.31    -27.36     20.00
    8.4074     27.51     27.33    -26.82     20.00
    8.4176     26.94     27.34    -27.41     20.00
    8.4277     26.91     27.36    -27.45     20.00
    8.4379     27.88     27.37    -26.50     20.00
    8.4481     27.38     27.39    -27.01     20.00
    8.4582     27.31     27.40    -27.09     20.00
    8.4684     28.52     27.42    -25.90     20.00
    8.4786     27.26     27.43    -27.17     20.00
    8.4887     27.29     27.44    -27.16     20.00
    8.4989     27.54     27.46    -26.92     20.00
    8.5091     28.07     27.47    -26.41     20.00
    8.5192     27.34     27.49    -27.15     20.00
    8.5294     28.24     27.50    -26.27     20.00
    8.5395     28.29     27.52    -26.23     20.00
    8.5497     27.63     27.53    -26.91     20.00
    8.5599     28.18     27.55    -26.37     20.00
    8.5700     27.89     27.56    -26.68     20.00
    8.5802     27.93     27.58    -26.65     20.00
    8.5904     27.55     27.59    -27.05     20.00
    8.6005     27.93     27.61    -26.68     20.00
    8.6107     27.25     27.62    -27.38     20.00
    8.6209     27.66     27.64    -26.98     20.00
    8.6310     28.26     27.66    -26.40     20.00
    8.6412     28.07     27.67    -26.60     20.00
    8.6514     27.07     27.69    -27.62     20.00
    8.6615     28.23     27.70    -26.48     20.00
    8.6717     27.87     27.72    -26.85     20.00
    8.6818     27.38     27.73    -27.36     20.00
    8.6920     27.87     27.75    -26.88     20.00
    8.7022     27.47     27.76    -27.30     20.00
    8.7123     28.19     27.78    -26.59     20.00
    8.7225     28.10     27.80    -26.70     20.00
    8.7327     28.10     27.81    -26.72     20.00
    8.7428     28.32     27.83    -26.51     20.00
    8.7530     28.07     27.84    -26.78     20.00
    8.7632     28.62     27.86    -26.24     20.00
    8.7733     28.23     27.88    -26.65     20.00
    8.7835     28.46     27.89    -26.44     20.00
    8.7937     28.48     27.91    -26.43     20.00
    8.8038     28.30     27.93    -26.63     20.00
    8.8140     28.46     27.94    -26.49     20.00
    8.8242     28.48     27.96    -26.48     20.00
    8.8343     28.80     27.97    -26.18     20.00
    8.8445     29.07     27.99    -25.93     20.00
    8.8546     27.93     28.01    -27.08     20.00
    8.8648     28.39     28.02    -26.64     20.00
    8.8750     28.71     28.04    -26.34     20.00
    8.8851     28.16     28.06    -26.90     20.00
    8.8953     28.23     28.08    -26.85     20.00
    8.9055     27.50     28.09    -27.60     20.00
    8.9156     27.92     28.11    -27.19     20.00
    8.9258     28.44     28.13    -26.69     20.00
    8.9360     28.97     28.14    -26.18     20.00
    8.9461     28.98     28.16    -26.18     20.00
    8.9563     28.84     28.18    -26.34     20.00
    8.9665     29.21     28.20    -25.99     20.00
    8.9766     28.24     28.21    -26.98     20.00
    8.9868     29.11     28.23    -26.12     20.00
    8.9969     29.03     28.25    -26.22     20.00
    9.0071     29.50     28.27    -25.77     20.00
    9.0173     29.43     28.28    -25.86     20.00
    9.0274     28.84     28.30    -26.47     20.00
    9.0376     28.62     28.32    -26.70     20.00
    9.0478     29.41     28.34    -25.93     20.00
    9.0579     30.03     28.35    -25.33     20.00
    9.0681     28.56     28.37    -26.82     20.00
    9.0783     28.47     28.39    -26.92     20.00
    9.0884     29.79     28.41    -25.62     20.00
    9.0986     29.53     28.43    -25.90     20.00
    9.1088     29.78     28.45    -25.67     20.00
    9.1189     28.84     28.46    -26.63     20.00
    9.1291     29.20     28.48    -26.29     20.00
    9.1393     29.26     28.50    -26.24     20.00
    9.1494     29.21     28.52    -26.31     20.00
    9.1596     29.76     28.54    -25.78     20.00
    9.1697     29.89     28.56    -25.67     20.00
    9.1799     29.48     28.58    -26.10     20.00
    9.1901     28.59     28.59    -27.01     20.00
    9.2002     29.90     28.61    -25.72     20.00
    9.2104     30.08     28.63    -25.56     20.00
    9.2206     28.73     28.65    -26.93     20.00
    9.2307     29.84     28.67    -25.83     20.00
    9.2409     28.93     28.69    -26.76     20.00
    9.2511     28.31     28.71    -27.40     20.00
    9.2612     29.46     28.73    -26.27     20.00
    9.2714     29.58     28.75    -26.17     20.00
    9.2816     29.38     28.77    -26.39     20.00
    9.2917     29.79     28.79    -26.00     20.00
    9.3019     29.81     28.81    -26.00     20.00
    9.3120     29.90     28.83    -25.93     20.00
    9.3222     29.80     28.85    -26.05     20.00
    9.3324     30.21     28.87    -25.66     20.00
    9.3425     29.67     28.89    -26.22     20.00
    9.3527     30.17     28.91    -25.74     20.00
    9.3629     30.33     28.93    -25.60     20.00
    9.3730     29.83     28.95    -26.12     20.00
    9.3832     30.35     28.97    -25.62     20.00
    9.3934     29.89     28.99    -26.10     20.00
    9.4035     29.98     29.01    -26.03     20.00
    9.4137     30.16     29.03    -25.87     20.00
    9.4239     29.96     29.05    -26.09     20.00
    9.4340     29.94     29.07    -26.13     20.00
    9.4442     30.06     29.09    -26.03     20.00
    9.4544     30.59     29.11    -25.52     20.00
    9.4645     29.86     29.13    -26.27     20.00
    9.4747     29.01     29.15    -27.15     20.00
    9.4848     30.97     29.17    -25.21     20.00
    9.4950     30.65     29.19    -25.55     20.00
    9.5052     30.43     29.22    -25.79     20.00
    9.5153     30.34     29.24    -25.90     20.00
    9.5255     29.63     29.26    -26.63     20.00
    9.5357     30.04     29.28    -26.24     20.00
    9.5458     31.09     29.30    -25.21     20.00
    9.5560     30.41     29.32    -25.92     20.00
    9.5662     29.95     29.34    -26.40     20.00
    9.5763     31.29     29.37    -25.08     20.00
    9.5865     29.50     29.39    -26.89     20.00
    9.5967     29.48     29.41    -26.93     20.00
    9.6068     30.23     29.43    -26.21     20.00
    9.6170     30.16     29.45    -26.30     20.00
    9.6271     30.21     29.48    -26.27     20.00
    9.6373     30.63     29.50    -25.87     20.00
    9.6475     30.00     29.52    -26.52     20.00
    9.6576     30.46     29.54    -26.09     20.00
    9.6678     30.55     29.57    -26.02     20.00
    9.6780     30.24     29.59    -26.35     20.00
    9.6881     30.63     29.61    -25.98     20.00
    9.6983     30.20     29.63    -26.44     20.00
    9.7085     31.86     29.66    -24.80     20.00
    9.7186     30.43     29.68    -26.25     20.00
    9.7288     30.32     29.70    -26.39     20.00
    9.7390     30.07     29.73    -26.66     20.00
    9.7491     30.55     29.75    -26.20     20.00
    9.7593     31.02     29.77    -25.76     20.00
    9.7694     30.39     29.80    -26.41     20.00
