 => TITLE: 
 => Data file name: C:\Users\stefano\Nextcloud2\projects\programming\python\xrd-winplotr\folder\G111\G111--5-40-0.01-1000ms.xy
 => Instrm        :    1
 => Lambda(1&2)   :   1.54060  1.54060
 => Numb.of.points:      2930
 => Numb.of.peaks :         8
    2Theta     Yobs     Ycalc  Yobs-Ycal    Backg    Bragg     Posr  Intensity   FWHM    Eta
    6.4050     22.48     24.79    -28.69     20.91   18.6424     -2.07     164.66  0.8366  0.5000
    6.4152     22.65     24.80    -28.52     20.91   20.6057     -2.07      55.83  1.0613  0.5000
    6.4253     23.30     24.80    -27.88     20.91   22.4436     -2.07     109.10  1.0662  0.5000
    6.4355     22.71     24.81    -28.48     20.91   28.6048     -2.07      48.69  1.1854  0.5000
    6.4457     22.24     24.81    -28.95     20.90   30.0251     -2.07      35.54  3.1256  0.5000
    6.4558     23.34     24.82    -27.86     20.90   33.2414     -2.07      18.00  2.0088  0.5000
    6.4660     22.85     24.83    -28.35     20.90   17.2222     -2.07      44.72  2.1982  0.5000
    6.4762     23.23     24.83    -27.98     20.90   20.1044     -2.07     931.19  9.8565  0.5000
    6.4863     23.12     24.84    -28.10     20.90
    6.4965     22.99     24.85    -28.23     20.90
    6.5066     23.03     24.85    -28.20     20.90
    6.5168     22.65     24.86    -28.59     20.90
    6.5270     23.79     24.86    -27.45     20.90
    6.5371     22.68     24.87    -28.57     20.90
    6.5473     22.58     24.88    -28.68     20.90
    6.5575     23.29     24.88    -27.97     20.90
    6.5676     22.98     24.89    -28.29     20.90
    6.5778     22.26     24.90    -29.01     20.90
    6.5880     22.90     24.90    -28.38     20.90
    6.5981     22.76     24.91    -28.53     20.90
    6.6083     22.85     24.92    -28.44     20.90
    6.6185     23.01     24.92    -28.29     20.90
    6.6286     22.78     24.93    -28.53     20.90
    6.6388     23.41     24.94    -27.90     20.90
    6.6489     22.42     24.94    -28.90     20.90
    6.6591     23.17     24.95    -28.16     20.90
    6.6693     23.07     24.96    -28.26     20.90
    6.6794     23.21     24.96    -28.13     20.90
    6.6896     22.98     24.97    -28.37     20.90
    6.6998     23.32     24.98    -28.03     20.89
    6.7099     22.78     24.98    -28.58     20.89
    6.7201     22.96     24.99    -28.41     20.89
    6.7303     22.95     25.00    -28.43     20.89
    6.7404     23.15     25.00    -28.23     20.89
    6.7506     23.68     25.01    -27.71     20.89
    6.7608     22.80     25.02    -28.60     20.89
    6.7709     23.45     25.03    -27.95     20.89
    6.7811     23.60     25.03    -27.81     20.89
    6.7913     23.41     25.04    -28.01     20.89
    6.8014     23.23     25.05    -28.19     20.89
    6.8116     23.96     25.05    -27.47     20.89
    6.8217     23.51     25.06    -27.93     20.89
    6.8319     22.93     25.07    -28.52     20.89
    6.8421     23.37     25.07    -28.08     20.89
    6.8522     23.13     25.08    -28.33     20.89
    6.8624     23.61     25.09    -27.86     20.89
    6.8726     23.27     25.10    -28.20     20.89
    6.8827     23.40     25.10    -28.08     20.89
    6.8929     24.46     25.11    -27.03     20.89
    6.9031     22.36     25.12    -29.14     20.89
    6.9132     23.68     25.13    -27.82     20.89
    6.9234     23.94     25.13    -27.57     20.89
    6.9336     23.88     25.14    -27.64     20.89
    6.9437     23.39     25.15    -28.14     20.89
    6.9539     22.98     25.15    -28.55     20.88
    6.9640     23.70     25.16    -27.84     20.88
    6.9742     24.20     25.17    -27.35     20.88
    6.9844     23.47     25.18    -28.09     20.88
    6.9945     23.41     25.18    -28.15     20.88
    7.0047     23.71     25.19    -27.86     20.88
    7.0149     23.32     25.20    -28.26     20.88
    7.0250     23.66     25.21    -27.93     20.88
    7.0352     23.93     25.22    -27.66     20.88
    7.0454     23.36     25.22    -28.24     20.88
    7.0555     23.68     25.23    -27.93     20.88
    7.0657     24.55     25.24    -27.07     20.88
    7.0759     24.18     25.25    -27.44     20.88
    7.0860     23.84     25.25    -27.79     20.88
    7.0962     24.54     25.26    -27.10     20.88
    7.1064     24.16     25.27    -27.49     20.88
    7.1165     23.21     25.28    -28.45     20.88
    7.1267     23.98     25.29    -27.68     20.88
    7.1368     23.80     25.29    -27.87     20.88
    7.1470     24.41     25.30    -27.27     20.88
    7.1572     23.42     25.31    -28.27     20.88
    7.1673     24.05     25.32    -27.65     20.88
    7.1775     24.22     25.33    -27.48     20.88
    7.1877     24.17     25.33    -27.54     20.88
    7.1978     23.70     25.34    -28.02     20.88
    7.2080     24.35     25.35    -27.38     20.87
    7.2182     23.33     25.36    -28.41     20.87
    7.2283     23.60     25.37    -28.14     20.87
    7.2385     23.79     25.37    -27.96     20.87
    7.2487     23.68     25.38    -28.08     20.87
    7.2588     24.35     25.39    -27.42     20.87
    7.2690     24.20     25.40    -27.58     20.87
    7.2791     23.66     25.41    -28.13     20.87
    7.2893     24.48     25.42    -27.31     20.87
    7.2995     24.34     25.43    -27.46     20.87
    7.3096     23.63     25.43    -28.18     20.87
    7.3198     23.79     25.44    -28.03     20.87
    7.3300     23.87     25.45    -27.96     20.87
    7.3401     24.23     25.46    -27.61     20.87
    7.3503     24.01     25.47    -27.84     20.87
    7.3605     23.79     25.48    -28.06     20.87
    7.3706     24.51     25.49    -27.35     20.87
    7.3808     24.60     25.49    -27.27     20.87
    7.3910     24.03     25.50    -27.85     20.87
    7.4011     24.86     25.51    -27.03     20.87
    7.4113     24.27     25.52    -27.63     20.87
    7.4215     23.98     25.53    -27.93     20.87
    7.4316     24.49     25.54    -27.43     20.87
    7.4418     24.52     25.55    -27.40     20.87
    7.4519     24.76     25.56    -27.17     20.87
    7.4621     25.38     25.56    -26.56     20.86
    7.4723     24.31     25.57    -27.64     20.86
    7.4824     24.74     25.58    -27.22     20.86
    7.4926     25.55     25.59    -26.42     20.86
    7.5028     24.55     25.60    -27.43     20.86
    7.5129     24.70     25.61    -27.29     20.86
    7.5231     25.16     25.62    -26.84     20.86
    7.5333     24.88     25.63    -27.13     20.86
    7.5434     24.70     25.64    -27.32     20.86
    7.5536     24.17     25.65    -27.85     20.86
    7.5638     24.45     25.66    -27.58     20.86
    7.5739     24.74     25.67    -27.30     20.86
    7.5841     24.51     25.68    -27.54     20.86
    7.5942     25.63     25.68    -26.43     20.86
    7.6044     24.01     25.69    -28.06     20.86
    7.6146     24.73     25.70    -27.35     20.86
    7.6247     24.79     25.71    -27.30     20.86
    7.6349     24.69     25.72    -27.41     20.86
    7.6451     24.80     25.73    -27.31     20.86
    7.6552     24.98     25.74    -27.14     20.86
    7.6654     24.40     25.75    -27.73     20.86
    7.6756     24.89     25.76    -27.25     20.86
    7.6857     24.48     25.77    -27.67     20.86
    7.6959     24.79     25.78    -27.37     20.86
    7.7061     24.69     25.79    -27.48     20.86
    7.7162     25.93     25.80    -26.25     20.85
    7.7264     25.12     25.81    -27.07     20.85
    7.7365     25.07     25.82    -27.13     20.85
    7.7467     25.49     25.83    -26.72     20.85
    7.7569     24.51     25.84    -27.71     20.85
    7.7670     25.50     25.85    -26.73     20.85
    7.7772     24.74     25.86    -27.50     20.85
    7.7874     24.54     25.87    -27.71     20.85
    7.7975     25.74     25.88    -26.52     20.85
    7.8077     24.80     25.89    -27.47     20.85
    7.8179     25.20     25.90    -27.08     20.85
    7.8280     26.05     25.91    -26.24     20.85
    7.8382     25.49     25.92    -26.81     20.85
    7.8484     25.74     25.93    -26.57     20.85
    7.8585     25.30     25.94    -27.02     20.85
    7.8687     25.57     25.95    -26.76     20.85
    7.8789     25.10     25.96    -27.24     20.85
    7.8890     25.61     25.97    -26.74     20.85
    7.8992     25.88     25.99    -26.48     20.85
    7.9093     25.70     26.00    -26.67     20.85
    7.9195     25.80     26.01    -26.58     20.85
    7.9297     25.79     26.02    -26.61     20.85
    7.9398     25.63     26.03    -26.78     20.85
    7.9500     25.34     26.04    -27.08     20.85
    7.9602     25.27     26.05    -27.16     20.85
    7.9703     25.48     26.06    -26.96     20.85
    7.9805     24.87     26.07    -27.58     20.84
    7.9907     25.13     26.08    -27.33     20.84
    8.0008     25.36     26.09    -27.11     20.84
    8.0110     25.20     26.10    -27.28     20.84
    8.0212     24.93     26.12    -27.56     20.84
    8.0313     25.07     26.13    -27.43     20.84
    8.0415     25.48     26.14    -27.04     20.84
    8.0516     25.84     26.15    -26.69     20.84
    8.0618     25.62     26.16    -26.92     20.84
    8.0720     25.68     26.17    -26.87     20.84
    8.0821     26.62     26.18    -25.94     20.84
    8.0923     25.70     26.19    -26.87     20.84
    8.1025     26.90     26.21    -25.68     20.84
    8.1126     25.74     26.22    -26.86     20.84
    8.1228     25.31     26.23    -27.30     20.84
    8.1330     26.76     26.24    -25.86     20.84
    8.1431     25.95     26.25    -26.68     20.84
    8.1533     25.60     26.26    -27.04     20.84
    8.1635     25.95     26.28    -26.70     20.84
    8.1736     27.24     26.29    -25.43     20.84
    8.1838     26.09     26.30    -26.59     20.84
    8.1940     26.18     26.31    -26.51     20.84
    8.2041     26.71     26.32    -25.99     20.84
    8.2143     26.65     26.34    -26.06     20.84
    8.2244     26.46     26.35    -26.27     20.84
    8.2346     26.53     26.36    -26.21     20.83
    8.2448     26.23     26.37    -26.52     20.83
    8.2549     26.40     26.38    -26.36     20.83
    8.2651     26.19     26.40    -26.58     20.83
    8.2753     26.35     26.41    -26.44     20.83
    8.2854     26.85     26.42    -25.95     20.83
    8.2956     26.45     26.43    -26.36     20.83
    8.3058     25.99     26.45    -26.83     20.83
    8.3159     26.09     26.46    -26.75     20.83
    8.3261     26.84     26.47    -26.01     20.83
    8.3363     26.66     26.48    -26.20     20.83
    8.3464     25.62     26.50    -27.25     20.83
    8.3566     26.43     26.51    -26.46     20.83
    8.3667     26.59     26.52    -26.31     20.83
    8.3769     25.99     26.53    -26.92     20.83
    8.3871     26.36     26.55    -26.56     20.83
    8.3972     26.69     26.56    -26.25     20.83
    8.4074     26.45     26.57    -26.50     20.83
    8.4176     26.60     26.59    -26.36     20.83
    8.4277     26.99     26.60    -25.99     20.83
    8.4379     27.11     26.61    -25.88     20.83
    8.4481     27.23     26.62    -25.77     20.83
    8.4582     26.49     26.64    -26.53     20.83
    8.4684     26.92     26.65    -26.11     20.83
    8.4786     26.98     26.66    -26.06     20.83
    8.4887     26.90     26.68    -26.16     20.82
    8.4989     26.15     26.69    -26.92     20.82
    8.5091     26.91     26.70    -26.17     20.82
    8.5192     26.72     26.72    -26.38     20.82
    8.5294     27.76     26.73    -25.35     20.82
    8.5395     27.62     26.75    -25.50     20.82
    8.5497     26.62     26.76    -26.52     20.82
    8.5599     27.15     26.77    -26.00     20.82
    8.5700     26.99     26.79    -26.17     20.82
    8.5802     26.57     26.80    -26.61     20.82
    8.5904     27.26     26.81    -25.93     20.82
    8.6005     26.55     26.83    -26.66     20.82
    8.6107     27.02     26.84    -26.20     20.82
    8.6209     26.84     26.86    -26.39     20.82
    8.6310     27.45     26.87    -25.80     20.82
    8.6412     26.62     26.88    -26.64     20.82
    8.6514     27.38     26.90    -25.90     20.82
    8.6615     28.18     26.91    -25.11     20.82
    8.6717     26.97     26.93    -26.34     20.82
    8.6818     26.70     26.94    -26.62     20.82
    8.6920     27.98     26.96    -25.35     20.82
    8.7022     27.18     26.97    -26.17     20.82
    8.7123     28.26     26.98    -25.10     20.82
    8.7225     28.00     27.00    -25.38     20.82
    8.7327     26.96     27.01    -26.43     20.82
    8.7428     27.15     27.03    -26.26     20.81
    8.7530     27.78     27.04    -25.64     20.81
    8.7632     26.84     27.06    -26.60     20.81
    8.7733     26.96     27.07    -26.49     20.81
    8.7835     27.49     27.09    -25.98     20.81
    8.7937     27.04     27.10    -26.44     20.81
    8.8038     28.16     27.12    -25.34     20.81
    8.8140     27.88     27.13    -25.63     20.81
    8.8242     26.79     27.15    -26.74     20.81
    8.8343     27.31     27.16    -26.23     20.81
    8.8445     27.77     27.18    -25.79     20.81
    8.8546     27.95     27.20    -25.62     20.81
    8.8648     27.84     27.21    -25.75     20.81
    8.8750     27.27     27.23    -26.33     20.81
    8.8851     27.45     27.24    -26.17     20.81
    8.8953     27.99     27.26    -25.65     20.81
    8.9055     27.82     27.27    -25.83     20.81
    8.9156     27.30     27.29    -26.37     20.81
    8.9258     29.51     27.30    -24.17     20.81
    8.9360     28.36     27.32    -25.34     20.81
    8.9461     27.21     27.34    -26.50     20.81
    8.9563     28.80     27.35    -24.93     20.81
    8.9665     28.36     27.37    -25.39     20.81
    8.9766     27.84     27.38    -25.92     20.81
    8.9868     28.30     27.40    -25.48     20.81
    8.9969     27.19     27.42    -26.61     20.80
    9.0071     27.82     27.43    -25.99     20.80
    9.0173     29.09     27.45    -24.74     20.80
    9.0274     28.71     27.47    -25.13     20.80
    9.0376     28.57     27.48    -25.29     20.80
    9.0478     27.67     27.50    -26.21     20.80
    9.0579     27.98     27.52    -25.91     20.80
    9.0681     27.43     27.53    -26.48     20.80
    9.0783     28.24     27.55    -25.69     20.80
    9.0884     28.11     27.57    -25.83     20.80
    9.0986     28.36     27.58    -25.60     20.80
    9.1088     29.17     27.60    -24.81     20.80
    9.1189     28.48     27.62    -25.52     20.80
    9.1291     28.93     27.64    -25.08     20.80
    9.1393     28.83     27.65    -25.20     20.80
    9.1494     27.74     27.67    -26.31     20.80
    9.1596     29.42     27.69    -24.64     20.80
    9.1697     28.40     27.70    -25.68     20.80
    9.1799     28.90     27.72    -25.20     20.80
    9.1901     27.67     27.74    -26.45     20.80
    9.2002     28.85     27.76    -25.28     20.80
    9.2104     28.95     27.77    -25.20     20.80
    9.2206     28.74     27.79    -25.43     20.80
    9.2307     29.14     27.81    -25.05     20.80
    9.2409     29.36     27.83    -24.85     20.80
    9.2511     28.26     27.85    -25.96     20.79
    9.2612     28.32     27.86    -25.92     20.79
    9.2714     29.45     27.88    -24.81     20.79
    9.2816     28.31     27.90    -25.97     20.79
    9.2917     28.74     27.92    -25.56     20.79
    9.3019     28.49     27.94    -25.83     20.79
    9.3120     28.91     27.96    -25.42     20.79
    9.3222     28.85     27.97    -25.50     20.79
    9.3324     28.99     27.99    -25.38     20.79
    9.3425     28.52     28.01    -25.87     20.79
    9.3527     29.96     28.03    -24.45     20.79
    9.3629     27.99     28.05    -26.44     20.79
    9.3730     29.09     28.07    -25.36     20.79
    9.3832     28.63     28.09    -25.83     20.79
    9.3934     29.54     28.11    -24.94     20.79
    9.4035     28.71     28.12    -25.79     20.79
    9.4137     29.48     28.14    -25.04     20.79
    9.4239     29.41     28.16    -25.13     20.79
    9.4340     29.45     28.18    -25.11     20.79
    9.4442     29.57     28.20    -25.01     20.79
    9.4544     29.02     28.22    -25.58     20.79
    9.4645     29.59     28.24    -25.03     20.79
    9.4747     29.59     28.26    -25.05     20.79
    9.4848     29.46     28.28    -25.20     20.79
    9.4950     29.51     28.30    -25.17     20.79
    9.5052     29.85     28.32    -24.85     20.78
    9.5153     29.54     28.34    -25.18     20.78
    9.5255     29.39     28.36    -25.35     20.78
    9.5357     30.60     28.38    -24.16     20.78
    9.5458     30.16     28.40    -24.62     20.78
    9.5560     28.48     28.42    -26.32     20.78
    9.5662     29.27     28.44    -25.55     20.78
    9.5763     29.75     28.46    -25.09     20.78
    9.5865     29.09     28.48    -25.77     20.78
    9.5967     29.95     28.50    -24.93     20.78
    9.6068     29.51     28.52    -25.39     20.78
    9.6170     29.60     28.54    -25.32     20.78
    9.6271     30.63     28.56    -24.31     20.78
    9.6373     29.58     28.59    -25.38     20.78
    9.6475     29.16     28.61    -25.82     20.78
    9.6576     30.15     28.63    -24.86     20.78
    9.6678     30.15     28.65    -24.88     20.78
    9.6780     29.24     28.67    -25.81     20.78
    9.6881     30.02     28.69    -25.05     20.78
    9.6983     29.80     28.71    -25.29     20.78
    9.7085     30.37     28.73    -24.74     20.78
    9.7186     30.50     28.76    -24.63     20.78
    9.7288     30.07     28.78    -25.09     20.78
    9.7390     29.40     28.80    -25.78     20.78
    9.7491     29.79     28.82    -25.41     20.78
    9.7593     29.30     28.84    -25.92     20.78
    9.7694     29.30     28.86    -25.94     20.77
    9.7796     30.12     28.89    -25.15     20.77
    9.7898     30.66     28.91    -24.63     20.77
    9.7999     29.83     28.93    -25.48     20.77
    9.8101     29.98     28.95    -25.35     20.77
    9.8203     30.60     28.98    -24.75     20.77
    9.8304     29.07     29.00    -26.31     20.77
    9.8406     30.62     29.02    -24.78     20.77
    9.8508     29.89     29.04    -25.53     20.77
    9.8609     29.05     29.07    -26.39     20.77
    9.8711     31.16     29.09    -24.31     20.77
    9.8813     29.76     29.11    -25.73     20.77
    9.8914     30.05     29.14    -25.46     20.77
    9.9016     30.13     29.16    -25.41     20.77
    9.9118     30.56     29.18    -25.00     20.77
    9.9219     29.55     29.21    -26.03     20.77
    9.9321     30.55     29.23    -25.06     20.77
    9.9422     29.75     29.25    -25.88     20.77
    9.9524     30.84     29.28    -24.81     20.77
    9.9626     29.82     29.30    -25.86     20.77
    9.9727     30.52     29.32    -25.18     20.77
    9.9829     30.44     29.35    -25.29     20.77
    9.9931     30.38     29.37    -25.37     20.77
   10.0032     30.38     29.40    -25.39     20.77
   10.0134     30.46     29.42    -25.34     20.77
   10.0236     30.73     29.44    -25.09     20.76
   10.0337     29.68     29.47    -26.17     20.76
   10.0439     30.16     29.49    -25.71     20.76
   10.0541     30.99     29.52    -24.91     20.76
   10.0642     30.31     29.54    -25.61     20.76
   10.0744     31.31     29.57    -24.63     20.76
   10.0845     31.16     29.59    -24.81     20.76
   10.0947     30.84     29.62    -25.15     20.76
   10.1049     30.92     29.64    -25.10     20.76
   10.1150     30.85     29.67    -25.19     20.76
   10.1252     31.17     29.69    -24.90     20.76
   10.1354     31.06     29.72    -25.03     20.76
   10.1455     31.55     29.74    -24.57     20.76
   10.1557     30.80     29.77    -25.35     20.76
