 => TITLE: 
 => Data file name: C:\Users\stefano\Nextcloud2\uni\master-thesis\XRD\data\G111\G111--5-40-0.01-1000ms.xy
 => Instrm        :    1
 => Lambda(1&2)   :   1.54060  1.54060
 => Numb.of.points:      2951
 => Numb.of.peaks :         7
    2Theta     Yobs     Ycalc  Yobs-Ycal    Backg    Bragg     Posr  Intensity   FWHM    Eta
    6.0086     23.72     24.53    -27.36     20.00   18.6828     -2.22     144.92  0.7169  0.6222
    6.0187     23.63     24.54    -27.46     20.00   20.6426     -2.22      25.29  0.6284  0.6222
    6.0289     23.77     24.55    -27.32     20.00   22.5655     -2.22     106.75  0.9997  0.6222
    6.0391     23.38     24.55    -27.72     20.00   28.5670     -2.22      62.41  1.3791  0.6222
    6.0492     23.66     24.56    -27.44     20.00   30.0459     -2.22      32.47  3.0791  0.6222
    6.0594     22.86     24.57    -28.25     20.00   33.4085     -2.22      18.86  3.0791  0.6222
    6.0696     22.91     24.57    -28.21     20.00   19.6832     -2.22    1052.98  8.5537  0.6222
    6.0797     22.79     24.58    -28.33     20.00
    6.0899     23.34     24.59    -27.79     20.00
    6.1001     22.82     24.59    -28.32     20.00
    6.1102     23.01     24.60    -28.13     20.00
    6.1204     22.55     24.60    -28.60     20.00
    6.1306     23.70     24.61    -27.46     20.00
    6.1407     23.16     24.62    -28.00     20.00
    6.1509     23.45     24.62    -27.72     20.00
    6.1611     22.96     24.63    -28.22     20.00
    6.1712     22.88     24.64    -28.30     20.00
    6.1814     22.88     24.65    -28.31     20.00
    6.1915     23.66     24.65    -27.54     20.00
    6.2017     22.99     24.66    -28.21     20.00
    6.2119     22.48     24.67    -28.73     20.00
    6.2220     23.40     24.67    -27.82     20.00
    6.2322     22.10     24.68    -29.12     20.00
    6.2424     22.76     24.69    -28.47     20.00
    6.2525     23.07     24.69    -28.17     20.00
    6.2627     23.42     24.70    -27.83     20.00
    6.2729     23.15     24.71    -28.10     20.00
    6.2830     22.78     24.71    -28.48     20.00
    6.2932     22.54     24.72    -28.73     20.00
    6.3034     22.50     24.73    -28.77     20.00
    6.3135     22.88     24.73    -28.40     20.00
    6.3237     22.83     24.74    -28.46     20.00
    6.3338     22.73     24.75    -28.56     20.00
    6.3440     22.71     24.76    -28.59     20.00
    6.3542     22.91     24.76    -28.40     20.00
    6.3643     22.62     24.77    -28.70     20.00
    6.3745     23.80     24.78    -27.52     20.00
    6.3847     23.15     24.78    -28.18     20.00
    6.3948     22.85     24.79    -28.49     20.00
    6.4050     22.48     24.80    -28.86     20.00
    6.4152     22.65     24.80    -28.70     20.00
    6.4253     23.30     24.81    -28.06     20.00
    6.4355     22.71     24.82    -28.65     20.00
    6.4457     22.24     24.83    -29.13     20.00
    6.4558     23.34     24.83    -28.04     20.00
    6.4660     22.85     24.84    -28.54     20.00
    6.4762     23.23     24.85    -28.16     20.00
    6.4863     23.12     24.86    -28.28     20.00
    6.4965     22.99     24.86    -28.42     20.00
    6.5066     23.03     24.87    -28.39     20.00
    6.5168     22.65     24.88    -28.77     20.00
    6.5270     23.79     24.88    -27.64     20.00
    6.5371     22.68     24.89    -28.76     20.00
    6.5473     22.58     24.90    -28.87     20.00
    6.5575     23.29     24.91    -28.16     20.00
    6.5676     22.98     24.91    -28.48     20.00
    6.5778     22.26     24.92    -29.21     20.00
    6.5880     22.90     24.93    -28.57     20.00
    6.5981     22.76     24.94    -28.72     20.00
    6.6083     22.85     24.94    -28.64     20.00
    6.6185     23.01     24.95    -28.49     20.00
    6.6286     22.78     24.96    -28.72     20.00
    6.6388     23.41     24.97    -28.10     20.00
    6.6489     22.42     24.97    -29.10     20.00
    6.6591     23.17     24.98    -28.36     20.00
    6.6693     23.07     24.99    -28.47     20.00
    6.6794     23.21     25.00    -28.33     20.00
    6.6896     22.98     25.00    -28.57     20.00
    6.6998     23.32     25.01    -28.24     20.00
    6.7099     22.78     25.02    -28.79     20.00
    6.7201     22.96     25.03    -28.61     20.00
    6.7303     22.95     25.04    -28.63     20.00
    6.7404     23.15     25.04    -28.44     20.00
    6.7506     23.68     25.05    -27.92     20.00
    6.7608     22.80     25.06    -28.81     20.00
    6.7709     23.45     25.07    -28.16     20.00
    6.7811     23.60     25.07    -28.02     20.00
    6.7913     23.41     25.08    -28.22     20.00
    6.8014     23.23     25.09    -28.41     20.00
    6.8116     23.96     25.10    -27.68     20.00
    6.8217     23.51     25.11    -28.14     20.00
    6.8319     22.93     25.11    -28.73     20.00
    6.8421     23.37     25.12    -28.30     20.00
    6.8522     23.13     25.13    -28.55     20.00
    6.8624     23.61     25.14    -28.07     20.00
    6.8726     23.27     25.15    -28.42     20.00
    6.8827     23.40     25.15    -28.30     20.00
    6.8929     24.46     25.16    -27.25     20.00
    6.9031     22.36     25.17    -29.36     20.00
    6.9132     23.68     25.18    -28.04     20.00
    6.9234     23.94     25.19    -27.79     20.00
    6.9336     23.88     25.20    -27.86     20.00
    6.9437     23.39     25.20    -28.36     20.00
    6.9539     22.98     25.21    -28.78     20.00
    6.9640     23.70     25.22    -28.07     20.00
    6.9742     24.20     25.23    -27.57     20.00
    6.9844     23.47     25.24    -28.31     20.00
    6.9945     23.41     25.24    -28.38     20.00
    7.0047     23.71     25.25    -28.09     20.00
    7.0149     23.32     25.26    -28.49     20.00
    7.0250     23.66     25.27    -28.16     20.00
    7.0352     23.93     25.28    -27.89     20.00
    7.0454     23.36     25.29    -28.47     20.00
    7.0555     23.68     25.30    -28.16     20.00
    7.0657     24.55     25.30    -27.30     20.00
    7.0759     24.18     25.31    -27.68     20.00
    7.0860     23.84     25.32    -28.03     20.00
    7.0962     24.54     25.33    -27.34     20.00
    7.1064     24.16     25.34    -27.72     20.00
    7.1165     23.21     25.35    -28.68     20.00
    7.1267     23.98     25.36    -27.92     20.00
    7.1368     23.80     25.36    -28.11     20.00
    7.1470     24.41     25.37    -27.51     20.00
    7.1572     23.42     25.38    -28.51     20.00
    7.1673     24.05     25.39    -27.89     20.00
    7.1775     24.22     25.40    -27.73     20.00
    7.1877     24.17     25.41    -27.78     20.00
    7.1978     23.70     25.42    -28.26     20.00
    7.2080     24.35     25.43    -27.62     20.00
    7.2182     23.33     25.43    -28.65     20.00
    7.2283     23.60     25.44    -28.39     20.00
    7.2385     23.79     25.45    -28.21     20.00
    7.2487     23.68     25.46    -28.33     20.00
    7.2588     24.35     25.47    -27.67     20.00
    7.2690     24.20     25.48    -27.83     20.00
    7.2791     23.66     25.49    -28.37     20.00
    7.2893     24.48     25.50    -27.56     20.00
    7.2995     24.34     25.51    -27.71     20.00
    7.3096     23.63     25.52    -28.43     20.00
    7.3198     23.79     25.53    -28.28     20.00
    7.3300     23.87     25.53    -28.21     20.00
    7.3401     24.23     25.54    -27.86     20.00
    7.3503     24.01     25.55    -28.09     20.00
    7.3605     23.79     25.56    -28.32     20.00
    7.3706     24.51     25.57    -27.61     20.00
    7.3808     24.60     25.58    -27.53     20.00
    7.3910     24.03     25.59    -28.11     20.00
    7.4011     24.86     25.60    -27.29     20.00
    7.4113     24.27     25.61    -27.89     20.00
    7.4215     23.98     25.62    -28.18     20.00
    7.4316     24.49     25.63    -27.68     20.00
    7.4418     24.52     25.64    -27.66     20.00
    7.4519     24.76     25.65    -27.43     20.00
    7.4621     25.38     25.66    -26.82     20.00
    7.4723     24.31     25.67    -27.90     20.00
    7.4824     24.74     25.68    -27.48     20.00
    7.4926     25.55     25.69    -26.68     20.00
    7.5028     24.55     25.70    -27.69     20.00
    7.5129     24.70     25.70    -27.55     20.00
    7.5231     25.16     25.71    -27.10     20.00
    7.5333     24.88     25.72    -27.39     20.00
    7.5434     24.70     25.73    -27.58     20.00
    7.5536     24.17     25.74    -28.12     20.00
    7.5638     24.45     25.75    -27.85     20.00
    7.5739     24.74     25.76    -27.57     20.00
    7.5841     24.51     25.77    -27.81     20.00
    7.5942     25.63     25.78    -26.70     20.00
    7.6044     24.01     25.79    -28.33     20.00
    7.6146     24.73     25.80    -27.62     20.00
    7.6247     24.79     25.81    -27.57     20.00
    7.6349     24.69     25.82    -27.68     20.00
    7.6451     24.80     25.83    -27.58     20.00
    7.6552     24.98     25.84    -27.41     20.00
    7.6654     24.40     25.85    -28.00     20.00
    7.6756     24.89     25.86    -27.52     20.00
    7.6857     24.48     25.87    -27.94     20.00
    7.6959     24.79     25.89    -27.64     20.00
    7.7061     24.69     25.90    -27.75     20.00
    7.7162     25.93     25.91    -26.52     20.00
    7.7264     25.12     25.92    -27.34     20.00
    7.7365     25.07     25.93    -27.40     20.00
    7.7467     25.49     25.94    -26.99     20.00
    7.7569     24.51     25.95    -27.98     20.00
    7.7670     25.50     25.96    -27.00     20.00
    7.7772     24.74     25.97    -27.77     20.00
    7.7874     24.54     25.98    -27.99     20.00
    7.7975     25.74     25.99    -26.80     20.00
    7.8077     24.80     26.00    -27.75     20.00
    7.8179     25.20     26.01    -27.36     20.00
    7.8280     26.05     26.02    -26.52     20.00
    7.8382     25.49     26.03    -27.09     20.00
    7.8484     25.74     26.04    -26.85     20.00
    7.8585     25.30     26.05    -27.30     20.00
    7.8687     25.57     26.07    -27.04     20.00
    7.8789     25.10     26.08    -27.52     20.00
    7.8890     25.61     26.09    -27.02     20.00
    7.8992     25.88     26.10    -26.76     20.00
    7.9093     25.70     26.11    -26.96     20.00
    7.9195     25.80     26.12    -26.87     20.00
    7.9297     25.79     26.13    -26.89     20.00
    7.9398     25.63     26.14    -27.06     20.00
    7.9500     25.34     26.15    -27.36     20.00
    7.9602     25.27     26.16    -27.44     20.00
    7.9703     25.48     26.18    -27.24     20.00
    7.9805     24.87     26.19    -27.86     20.00
    7.9907     25.13     26.20    -27.61     20.00
    8.0008     25.36     26.21    -27.40     20.00
    8.0110     25.20     26.22    -27.57     20.00
    8.0212     24.93     26.23    -27.85     20.00
    8.0313     25.07     26.24    -27.72     20.00
    8.0415     25.48     26.26    -27.32     20.00
    8.0516     25.84     26.27    -26.97     20.00
    8.0618     25.62     26.28    -27.20     20.00
    8.0720     25.68     26.29    -27.16     20.00
    8.0821     26.62     26.30    -26.23     20.00
    8.0923     25.70     26.31    -27.16     20.00
    8.1025     26.90     26.33    -25.97     20.00
    8.1126     25.74     26.34    -27.14     20.00
    8.1228     25.31     26.35    -27.59     20.00
    8.1330     26.76     26.36    -26.15     20.00
    8.1431     25.95     26.37    -26.97     20.00
    8.1533     25.60     26.39    -27.33     20.00
    8.1635     25.95     26.40    -26.99     20.00
    8.1736     27.24     26.41    -25.72     20.00
    8.1838     26.09     26.42    -26.88     20.00
    8.1940     26.18     26.43    -26.80     20.00
    8.2041     26.71     26.45    -26.28     20.00
    8.2143     26.65     26.46    -26.35     20.00
    8.2244     26.46     26.47    -26.56     20.00
    8.2346     26.53     26.48    -26.50     20.00
    8.2448     26.23     26.49    -26.81     20.00
    8.2549     26.40     26.51    -26.65     20.00
    8.2651     26.19     26.52    -26.88     20.00
    8.2753     26.35     26.53    -26.73     20.00
    8.2854     26.85     26.54    -26.24     20.00
    8.2956     26.45     26.56    -26.65     20.00
    8.3058     25.99     26.57    -27.13     20.00
    8.3159     26.09     26.58    -27.04     20.00
    8.3261     26.84     26.59    -26.30     20.00
    8.3363     26.66     26.61    -26.49     20.00
    8.3464     25.62     26.62    -27.55     20.00
    8.3566     26.43     26.63    -26.75     20.00
    8.3667     26.59     26.65    -26.60     20.00
    8.3769     25.99     26.66    -27.21     20.00
    8.3871     26.36     26.67    -26.86     20.00
    8.3972     26.69     26.68    -26.54     20.00
    8.4074     26.45     26.70    -26.79     20.00
    8.4176     26.60     26.71    -26.66     20.00
    8.4277     26.99     26.72    -26.28     20.00
    8.4379     27.11     26.74    -26.17     20.00
    8.4481     27.23     26.75    -26.07     20.00
    8.4582     26.49     26.76    -26.82     20.00
    8.4684     26.92     26.78    -26.40     20.00
    8.4786     26.98     26.79    -26.36     20.00
    8.4887     26.90     26.80    -26.45     20.00
    8.4989     26.15     26.82    -27.21     20.00
    8.5091     26.91     26.83    -26.47     20.00
    8.5192     26.72     26.84    -26.67     20.00
    8.5294     27.76     26.86    -25.64     20.00
    8.5395     27.62     26.87    -25.80     20.00
    8.5497     26.62     26.89    -26.81     20.00
    8.5599     27.15     26.90    -26.30     20.00
    8.5700     26.99     26.91    -26.47     20.00
    8.5802     26.57     26.93    -26.90     20.00
    8.5904     27.26     26.94    -26.23     20.00
    8.6005     26.55     26.95    -26.95     20.00
    8.6107     27.02     26.97    -26.49     20.00
    8.6209     26.84     26.98    -26.69     20.00
    8.6310     27.45     27.00    -26.09     20.00
    8.6412     26.62     27.01    -26.94     20.00
    8.6514     27.38     27.03    -26.19     20.00
    8.6615     28.18     27.04    -25.41     20.00
    8.6717     26.97     27.05    -26.63     20.00
    8.6818     26.70     27.07    -26.91     20.00
    8.6920     27.98     27.08    -25.65     20.00
    8.7022     27.18     27.10    -26.46     20.00
    8.7123     28.26     27.11    -25.40     20.00
    8.7225     28.00     27.13    -25.67     20.00
    8.7327     26.96     27.14    -26.73     20.00
    8.7428     27.15     27.16    -26.55     20.00
    8.7530     27.78     27.17    -25.94     20.00
    8.7632     26.84     27.19    -26.89     20.00
    8.7733     26.96     27.20    -26.79     20.00
    8.7835     27.49     27.22    -26.27     20.00
    8.7937     27.04     27.23    -26.74     20.00
    8.8038     28.16     27.25    -25.63     20.00
    8.8140     27.88     27.26    -25.93     20.00
    8.8242     26.79     27.28    -27.03     20.00
    8.8343     27.31     27.29    -26.53     20.00
    8.8445     27.77     27.31    -26.08     20.00
    8.8546     27.95     27.32    -25.92     20.00
    8.8648     27.84     27.34    -26.04     20.00
    8.8750     27.27     27.35    -26.63     20.00
    8.8851     27.45     27.37    -26.46     20.00
    8.8953     27.99     27.38    -25.94     20.00
    8.9055     27.82     27.40    -26.12     20.00
    8.9156     27.30     27.41    -26.66     20.00
    8.9258     29.51     27.43    -24.47     20.00
    8.9360     28.36     27.45    -25.63     20.00
    8.9461     27.21     27.46    -26.80     20.00
    8.9563     28.80     27.48    -25.22     20.00
    8.9665     28.36     27.49    -25.68     20.00
    8.9766     27.84     27.51    -26.22     20.00
    8.9868     28.30     27.53    -25.77     20.00
    8.9969     27.19     27.54    -26.90     20.00
    9.0071     27.82     27.56    -26.28     20.00
    9.0173     29.09     27.57    -25.03     20.00
    9.0274     28.71     27.59    -25.43     20.00
    9.0376     28.57     27.61    -25.58     20.00
    9.0478     27.67     27.62    -26.50     20.00
    9.0579     27.98     27.64    -26.21     20.00
    9.0681     27.43     27.66    -26.77     20.00
    9.0783     28.24     27.67    -25.98     20.00
    9.0884     28.11     27.69    -26.13     20.00
    9.0986     28.36     27.71    -25.89     20.00
    9.1088     29.17     27.72    -25.10     20.00
    9.1189     28.48     27.74    -25.81     20.00
    9.1291     28.93     27.76    -25.37     20.00
    9.1393     28.83     27.77    -25.49     20.00
    9.1494     27.74     27.79    -26.60     20.00
    9.1596     29.42     27.81    -24.93     20.00
    9.1697     28.40     27.83    -25.97     20.00
    9.1799     28.90     27.84    -25.49     20.00
    9.1901     27.67     27.86    -26.74     20.00
    9.2002     28.85     27.88    -25.57     20.00
    9.2104     28.95     27.90    -25.49     20.00
    9.2206     28.74     27.91    -25.72     20.00
    9.2307     29.14     27.93    -25.34     20.00
    9.2409     29.36     27.95    -25.13     20.00
    9.2511     28.26     27.97    -26.25     20.00
    9.2612     28.32     27.98    -26.21     20.00
    9.2714     29.45     28.00    -25.10     20.00
    9.2816     28.31     28.02    -26.26     20.00
    9.2917     28.74     28.04    -25.84     20.00
    9.3019     28.49     28.06    -26.11     20.00
    9.3120     28.91     28.07    -25.71     20.00
    9.3222     28.85     28.09    -25.79     20.00
    9.3324     28.99     28.11    -25.67     20.00
    9.3425     28.52     28.13    -26.15     20.00
    9.3527     29.96     28.15    -24.73     20.00
    9.3629     27.99     28.17    -26.72     20.00
    9.3730     29.09     28.18    -25.64     20.00
    9.3832     28.63     28.20    -26.12     20.00
    9.3934     29.54     28.22    -25.23     20.00
    9.4035     28.71     28.24    -26.08     20.00
    9.4137     29.48     28.26    -25.33     20.00
    9.4239     29.41     28.28    -25.41     20.00
    9.4340     29.45     28.30    -25.39     20.00
    9.4442     29.57     28.32    -25.29     20.00
    9.4544     29.02     28.34    -25.86     20.00
    9.4645     29.59     28.36    -25.31     20.00
    9.4747     29.59     28.37    -25.33     20.00
    9.4848     29.46     28.39    -25.48     20.00
    9.4950     29.51     28.41    -25.45     20.00
    9.5052     29.85     28.43    -25.13     20.00
    9.5153     29.54     28.45    -25.46     20.00
    9.5255     29.39     28.47    -25.63     20.00
    9.5357     30.60     28.49    -24.44     20.00
    9.5458     30.16     28.51    -24.90     20.00
    9.5560     28.48     28.53    -26.60     20.00
    9.5662     29.27     28.55    -25.83     20.00
    9.5763     29.75     28.57    -25.37     20.00
    9.5865     29.09     28.59    -26.05     20.00
    9.5967     29.95     28.61    -25.21     20.00
    9.6068     29.51     28.63    -25.67     20.00
    9.6170     29.60     28.65    -25.60     20.00
    9.6271     30.63     28.67    -24.59     20.00
    9.6373     29.58     28.70    -25.66     20.00
    9.6475     29.16     28.72    -26.10     20.00
    9.6576     30.15     28.74    -25.13     20.00
    9.6678     30.15     28.76    -25.15     20.00
    9.6780     29.24     28.78    -26.08     20.00
    9.6881     30.02     28.80    -25.33     20.00
    9.6983     29.80     28.82    -25.57     20.00
    9.7085     30.37     28.84    -25.02     20.00
    9.7186     30.50     28.86    -24.91     20.00
    9.7288     30.07     28.88    -25.36     20.00
    9.7390     29.40     28.91    -26.05     20.00
    9.7491     29.79     28.93    -25.68     20.00
    9.7593     29.30     28.95    -26.20     20.00
    9.7694     29.30     28.97    -26.22     20.00
