 => TITLE: 
 => Data file name: C:\Users\stefano\Nextcloud2\uni\master-thesis\XRD\data\G309\G309--5-40-0.01-1000ms.xy
 => Instrm        :    1
 => Lambda(1&2)   :   1.54060  1.54060
 => Numb.of.points:      2951
 => Numb.of.peaks :         7
    2Theta     Yobs     Ycalc  Yobs-Ycal    Backg    Bragg     Posr  Intensity   FWHM    Eta
    6.0086     25.12     25.94    -22.32     20.00   18.6415      0.78     133.07  0.7955  0.7083
    6.0187     24.30     25.95    -23.15     20.00   20.5806      0.78      10.05  0.5056  0.7083
    6.0289     24.87     25.96    -22.59     20.00   22.4953      0.78      91.25  1.1138  0.7083
    6.0391     24.78     25.96    -22.68     20.00   28.4722      0.78      61.08  1.7010  0.7083
    6.0492     25.05     25.97    -22.42     20.00   30.0125      0.78      23.29  2.1258  0.7083
    6.0594     24.51     25.98    -22.97     20.00   33.3020      0.78      16.29  2.1258  0.7083
    6.0696     24.70     25.99    -22.79     20.00   19.5823      0.78    1215.70  8.4843  0.7083
    6.0797     24.98     26.00    -22.52     20.00
    6.0899     24.76     26.01    -22.75     20.00
    6.1001     24.40     26.02    -23.12     20.00
    6.1102     24.12     26.02    -23.40     20.00
    6.1204     24.34     26.03    -23.19     20.00
    6.1306     24.07     26.04    -23.47     20.00
    6.1407     23.88     26.05    -23.67     20.00
    6.1509     24.46     26.06    -23.10     20.00
    6.1611     23.49     26.07    -24.08     20.00
    6.1712     23.95     26.08    -23.63     20.00
    6.1814     24.68     26.08    -22.90     20.00
    6.1915     24.10     26.09    -23.49     20.00
    6.2017     24.59     26.10    -23.01     20.00
    6.2119     25.15     26.11    -22.46     20.00
    6.2220     24.02     26.12    -23.60     20.00
    6.2322     24.43     26.13    -23.20     20.00
    6.2424     25.34     26.14    -22.30     20.00
    6.2525     24.12     26.15    -23.53     20.00
    6.2627     24.09     26.16    -23.57     20.00
    6.2729     24.46     26.16    -23.20     20.00
    6.2830     24.02     26.17    -23.65     20.00
    6.2932     23.81     26.18    -23.87     20.00
    6.3034     24.96     26.19    -22.73     20.00
    6.3135     24.70     26.20    -23.00     20.00
    6.3237     24.44     26.21    -23.27     20.00
    6.3338     23.95     26.22    -23.77     20.00
    6.3440     23.98     26.23    -23.75     20.00
    6.3542     24.74     26.24    -23.00     20.00
    6.3643     23.25     26.25    -24.50     20.00
    6.3745     24.71     26.25    -23.04     20.00
    6.3847     24.29     26.26    -23.47     20.00
    6.3948     24.40     26.27    -23.37     20.00
    6.4050     23.46     26.28    -24.32     20.00
    6.4152     24.23     26.29    -23.56     20.00
    6.4253     24.59     26.30    -23.21     20.00
    6.4355     24.70     26.31    -23.11     20.00
    6.4457     24.30     26.32    -23.52     20.00
    6.4558     23.79     26.33    -24.04     20.00
    6.4660     24.13     26.34    -23.71     20.00
    6.4762     24.60     26.35    -23.25     20.00
    6.4863     25.29     26.36    -22.57     20.00
    6.4965     24.24     26.37    -23.63     20.00
    6.5066     24.68     26.38    -23.20     20.00
    6.5168     23.87     26.38    -24.01     20.00
    6.5270     24.14     26.39    -23.75     20.00
    6.5371     23.07     26.40    -24.83     20.00
    6.5473     24.29     26.41    -23.62     20.00
    6.5575     23.74     26.42    -24.18     20.00
    6.5676     24.41     26.43    -23.52     20.00
    6.5778     23.76     26.44    -24.18     20.00
    6.5880     24.95     26.45    -23.00     20.00
    6.5981     25.18     26.46    -22.78     20.00
    6.6083     24.10     26.47    -23.87     20.00
    6.6185     24.98     26.48    -23.00     20.00
    6.6286     24.46     26.49    -23.53     20.00
    6.6388     24.29     26.50    -23.71     20.00
    6.6489     24.88     26.51    -23.13     20.00
    6.6591     24.36     26.52    -23.66     20.00
    6.6693     25.04     26.53    -22.99     20.00
    6.6794     24.06     26.54    -23.98     20.00
    6.6896     24.38     26.55    -23.67     20.00
    6.6998     24.21     26.56    -23.85     20.00
    6.7099     24.59     26.57    -23.48     20.00
    6.7201     24.57     26.58    -23.51     20.00
    6.7303     24.89     26.59    -23.20     20.00
    6.7404     25.12     26.60    -22.98     20.00
    6.7506     25.82     26.61    -22.29     20.00
    6.7608     25.19     26.62    -22.93     20.00
    6.7709     25.22     26.63    -22.91     20.00
    6.7811     24.23     26.64    -23.91     20.00
    6.7913     24.82     26.65    -23.33     20.00
    6.8014     25.22     26.66    -22.94     20.00
    6.8116     23.48     26.67    -24.69     20.00
    6.8217     25.36     26.68    -22.82     20.00
    6.8319     25.09     26.69    -23.10     20.00
    6.8421     25.10     26.70    -23.10     20.00
    6.8522     24.85     26.71    -23.36     20.00
    6.8624     24.54     26.72    -23.68     20.00
    6.8726     24.45     26.73    -23.78     20.00
    6.8827     24.77     26.74    -23.47     20.00
    6.8929     24.96     26.75    -23.29     20.00
    6.9031     25.14     26.76    -23.12     20.00
    6.9132     25.03     26.77    -23.24     20.00
    6.9234     24.70     26.78    -23.58     20.00
    6.9336     25.18     26.79    -23.11     20.00
    6.9437     24.40     26.80    -23.90     20.00
    6.9539     24.34     26.81    -23.97     20.00
    6.9640     25.74     26.83    -22.59     20.00
    6.9742     25.18     26.84    -23.16     20.00
    6.9844     25.09     26.85    -23.26     20.00
    6.9945     25.22     26.86    -23.14     20.00
    7.0047     25.33     26.87    -23.04     20.00
    7.0149     24.32     26.88    -24.06     20.00
    7.0250     25.30     26.89    -23.09     20.00
    7.0352     25.00     26.90    -23.40     20.00
    7.0454     24.58     26.91    -23.83     20.00
    7.0555     24.70     26.92    -23.72     20.00
    7.0657     25.19     26.93    -23.24     20.00
    7.0759     24.99     26.94    -23.45     20.00
    7.0860     24.78     26.95    -23.67     20.00
    7.0962     24.82     26.97    -23.65     20.00
    7.1064     25.19     26.98    -23.29     20.00
    7.1165     25.27     26.99    -23.22     20.00
    7.1267     25.55     27.00    -22.95     20.00
    7.1368     25.66     27.01    -22.85     20.00
    7.1470     24.96     27.02    -23.56     20.00
    7.1572     25.74     27.03    -22.79     20.00
    7.1673     25.80     27.04    -22.74     20.00
    7.1775     25.75     27.05    -22.80     20.00
    7.1877     25.71     27.07    -22.86     20.00
    7.1978     24.95     27.08    -23.63     20.00
    7.2080     25.80     27.09    -22.79     20.00
    7.2182     25.88     27.10    -22.72     20.00
    7.2283     25.01     27.11    -23.60     20.00
    7.2385     25.43     27.12    -23.19     20.00
    7.2487     26.05     27.13    -22.58     20.00
    7.2588     26.17     27.14    -22.47     20.00
    7.2690     25.62     27.16    -23.04     20.00
    7.2791     25.30     27.17    -23.37     20.00
    7.2893     26.17     27.18    -22.51     20.00
    7.2995     25.77     27.19    -22.92     20.00
    7.3096     25.99     27.20    -22.71     20.00
    7.3198     25.74     27.21    -22.97     20.00
    7.3300     26.07     27.23    -22.66     20.00
    7.3401     25.56     27.24    -23.18     20.00
    7.3503     25.88     27.25    -22.87     20.00
    7.3605     26.45     27.26    -22.31     20.00
    7.3706     25.25     27.27    -23.52     20.00
    7.3808     25.38     27.28    -23.40     20.00
    7.3910     25.72     27.30    -23.08     20.00
    7.4011     25.55     27.31    -23.26     20.00
    7.4113     25.93     27.32    -22.89     20.00
    7.4215     26.71     27.33    -22.12     20.00
    7.4316     26.38     27.34    -22.46     20.00
    7.4418     26.20     27.36    -22.66     20.00
    7.4519     26.32     27.37    -22.55     20.00
    7.4621     26.25     27.38    -22.63     20.00
    7.4723     25.59     27.39    -23.30     20.00
    7.4824     26.14     27.40    -22.76     20.00
    7.4926     26.66     27.42    -22.26     20.00
    7.5028     26.02     27.43    -22.91     20.00
    7.5129     26.68     27.44    -22.26     20.00
    7.5231     26.41     27.45    -22.54     20.00
    7.5333     27.00     27.47    -21.97     20.00
    7.5434     26.37     27.48    -22.61     20.00
    7.5536     27.04     27.49    -21.95     20.00
    7.5638     25.96     27.50    -23.04     20.00
    7.5739     27.02     27.52    -22.00     20.00
    7.5841     26.59     27.53    -22.44     20.00
    7.5942     26.58     27.54    -22.46     20.00
    7.6044     25.93     27.55    -23.12     20.00
    7.6146     27.03     27.57    -22.04     20.00
    7.6247     26.64     27.58    -22.44     20.00
    7.6349     26.75     27.59    -22.34     20.00
    7.6451     27.70     27.60    -21.40     20.00
    7.6552     27.02     27.62    -22.10     20.00
    7.6654     26.97     27.63    -22.16     20.00
    7.6756     26.51     27.64    -22.63     20.00
    7.6857     26.59     27.66    -22.57     20.00
    7.6959     26.43     27.67    -22.74     20.00
    7.7061     26.45     27.68    -22.73     20.00
    7.7162     27.30     27.69    -21.89     20.00
    7.7264     26.16     27.71    -23.05     20.00
    7.7365     26.65     27.72    -22.57     20.00
    7.7467     26.77     27.73    -22.46     20.00
    7.7569     26.52     27.75    -22.73     20.00
    7.7670     26.88     27.76    -22.38     20.00
    7.7772     27.35     27.77    -21.92     20.00
    7.7874     26.54     27.79    -22.75     20.00
    7.7975     27.33     27.80    -21.97     20.00
    7.8077     27.97     27.81    -21.34     20.00
    7.8179     27.04     27.83    -22.29     20.00
    7.8280     27.16     27.84    -22.18     20.00
    7.8382     27.19     27.85    -22.16     20.00
    7.8484     26.77     27.87    -22.60     20.00
    7.8585     27.74     27.88    -21.64     20.00
    7.8687     27.35     27.89    -22.04     20.00
    7.8789     27.37     27.91    -22.04     20.00
    7.8890     27.32     27.92    -22.10     20.00
    7.8992     27.65     27.94    -21.79     20.00
    7.9093     27.63     27.95    -21.82     20.00
    7.9195     27.41     27.96    -22.05     20.00
    7.9297     27.34     27.98    -22.14     20.00
    7.9398     28.26     27.99    -21.23     20.00
    7.9500     27.35     28.01    -22.16     20.00
    7.9602     27.69     28.02    -21.83     20.00
    7.9703     27.77     28.03    -21.76     20.00
    7.9805     27.76     28.05    -21.79     20.00
    7.9907     27.91     28.06    -21.65     20.00
    8.0008     27.80     28.08    -21.78     20.00
    8.0110     27.66     28.09    -21.93     20.00
    8.0212     28.15     28.10    -21.45     20.00
    8.0313     26.78     28.12    -22.84     20.00
    8.0415     28.94     28.13    -20.69     20.00
    8.0516     27.99     28.15    -21.66     20.00
    8.0618     27.70     28.16    -21.96     20.00
    8.0720     28.38     28.18    -21.30     20.00
    8.0821     28.32     28.19    -21.37     20.00
    8.0923     27.42     28.21    -22.29     20.00
    8.1025     27.01     28.22    -22.71     20.00
    8.1126     28.15     28.23    -21.58     20.00
    8.1228     28.21     28.25    -21.54     20.00
    8.1330     28.06     28.26    -21.70     20.00
    8.1431     28.38     28.28    -21.40     20.00
    8.1533     28.29     28.29    -21.50     20.00
    8.1635     28.35     28.31    -21.46     20.00
    8.1736     27.70     28.32    -22.12     20.00
    8.1838     27.59     28.34    -22.25     20.00
    8.1940     27.45     28.35    -22.40     20.00
    8.2041     28.77     28.37    -21.10     20.00
    8.2143     28.01     28.38    -21.87     20.00
    8.2244     27.61     28.40    -22.29     20.00
    8.2346     28.60     28.41    -21.31     20.00
    8.2448     27.98     28.43    -21.95     20.00
    8.2549     28.25     28.44    -21.69     20.00
    8.2651     28.35     28.46    -21.61     20.00
    8.2753     27.74     28.48    -22.24     20.00
    8.2854     28.27     28.49    -21.72     20.00
    8.2956     28.13     28.51    -21.88     20.00
    8.3058     28.51     28.52    -21.51     20.00
    8.3159     28.76     28.54    -21.28     20.00
    8.3261     28.34     28.55    -21.71     20.00
    8.3363     28.11     28.57    -21.96     20.00
    8.3464     28.76     28.58    -21.32     20.00
    8.3566     28.60     28.60    -21.50     20.00
    8.3667     27.72     28.62    -22.40     20.00
    8.3769     28.65     28.63    -21.48     20.00
    8.3871     28.71     28.65    -21.44     20.00
    8.3972     28.31     28.66    -21.85     20.00
    8.4074     28.28     28.68    -21.90     20.00
    8.4176     28.62     28.70    -21.58     20.00
    8.4277     28.70     28.71    -21.51     20.00
    8.4379     28.51     28.73    -21.72     20.00
    8.4481     28.20     28.75    -22.05     20.00
    8.4582     28.16     28.76    -22.10     20.00
    8.4684     28.98     28.78    -21.30     20.00
    8.4786     28.76     28.79    -21.53     20.00
    8.4887     29.35     28.81    -20.96     20.00
    8.4989     29.44     28.83    -20.89     20.00
    8.5091     29.27     28.84    -21.07     20.00
    8.5192     28.73     28.86    -21.63     20.00
    8.5294     29.20     28.88    -21.18     20.00
    8.5395     29.53     28.89    -20.86     20.00
    8.5497     28.54     28.91    -21.87     20.00
    8.5599     29.43     28.93    -21.00     20.00
    8.5700     29.25     28.94    -21.19     20.00
    8.5802     28.99     28.96    -21.47     20.00
    8.5904     29.09     28.98    -21.39     20.00
    8.6005     29.04     29.00    -21.46     20.00
    8.6107     29.76     29.01    -20.75     20.00
    8.6209     28.35     29.03    -22.18     20.00
    8.6310     28.80     29.05    -21.75     20.00
    8.6412     29.44     29.06    -21.12     20.00
    8.6514     29.84     29.08    -20.74     20.00
    8.6615     29.32     29.10    -21.28     20.00
    8.6717     30.34     29.12    -20.28     20.00
    8.6818     29.77     29.13    -20.86     20.00
    8.6920     29.54     29.15    -21.11     20.00
    8.7022     29.04     29.17    -21.63     20.00
    8.7123     30.09     29.19    -20.60     20.00
    8.7225     30.26     29.21    -20.45     20.00
    8.7327     29.97     29.22    -20.75     20.00
    8.7428     29.65     29.24    -21.09     20.00
    8.7530     29.76     29.26    -21.00     20.00
    8.7632     30.24     29.28    -20.54     20.00
    8.7733     30.53     29.30    -20.27     20.00
    8.7835     30.12     29.31    -20.69     20.00
    8.7937     29.71     29.33    -21.12     20.00
    8.8038     29.52     29.35    -21.33     20.00
    8.8140     29.78     29.37    -21.09     20.00
    8.8242     29.22     29.39    -21.67     20.00
    8.8343     30.17     29.41    -20.74     20.00
    8.8445     29.62     29.42    -21.30     20.00
    8.8546     29.53     29.44    -21.41     20.00
    8.8648     29.98     29.46    -20.98     20.00
    8.8750     29.18     29.48    -21.80     20.00
    8.8851     29.56     29.50    -21.44     20.00
    8.8953     30.26     29.52    -20.76     20.00
    8.9055     31.20     29.54    -19.84     20.00
    8.9156     29.45     29.56    -21.61     20.00
    8.9258     30.37     29.57    -20.70     20.00
    8.9360     30.00     29.59    -21.09     20.00
    8.9461     30.32     29.61    -20.79     20.00
    8.9563     29.87     29.63    -21.26     20.00
    8.9665     30.93     29.65    -20.22     20.00
    8.9766     29.81     29.67    -21.36     20.00
    8.9868     30.40     29.69    -20.79     20.00
    8.9969     30.83     29.71    -20.38     20.00
    9.0071     29.73     29.73    -21.50     20.00
    9.0173     31.23     29.75    -20.02     20.00
    9.0274     31.32     29.77    -19.95     20.00
    9.0376     30.74     29.79    -20.55     20.00
    9.0478     30.84     29.81    -20.47     20.00
    9.0579     30.18     29.83    -21.15     20.00
    9.0681     30.30     29.85    -21.05     20.00
    9.0783     30.73     29.87    -20.64     20.00
    9.0884     30.53     29.89    -20.86     20.00
    9.0986     30.21     29.91    -21.20     20.00
    9.1088     31.32     29.93    -20.11     20.00
    9.1189     31.71     29.95    -19.74     20.00
    9.1291     30.81     29.97    -20.66     20.00
    9.1393     31.36     29.99    -20.13     20.00
    9.1494     31.90     30.01    -19.61     20.00
    9.1596     30.20     30.03    -21.33     20.00
    9.1697     30.65     30.05    -20.90     20.00
    9.1799     32.23     30.07    -19.34     20.00
    9.1901     30.29     30.09    -21.30     20.00
    9.2002     31.08     30.12    -20.54     20.00
    9.2104     31.65     30.14    -19.99     20.00
    9.2206     30.13     30.16    -21.53     20.00
    9.2307     31.41     30.18    -20.27     20.00
    9.2409     30.76     30.20    -20.94     20.00
    9.2511     30.03     30.22    -21.69     20.00
    9.2612     31.20     30.24    -20.54     20.00
    9.2714     30.85     30.26    -20.91     20.00
    9.2816     31.75     30.29    -20.04     20.00
    9.2917     31.00     30.31    -20.81     20.00
    9.3019     31.32     30.33    -20.51     20.00
    9.3120     30.59     30.35    -21.26     20.00
    9.3222     31.64     30.37    -20.23     20.00
    9.3324     31.59     30.39    -20.30     20.00
    9.3425     30.70     30.42    -21.22     20.00
    9.3527     30.87     30.44    -21.07     20.00
    9.3629     31.56     30.46    -20.40     20.00
    9.3730     30.04     30.48    -21.94     20.00
    9.3832     32.05     30.51    -19.96     20.00
    9.3934     31.31     30.53    -20.72     20.00
    9.4035     31.27     30.55    -20.78     20.00
    9.4137     31.16     30.57    -20.91     20.00
    9.4239     31.64     30.60    -20.46     20.00
    9.4340     31.51     30.62    -20.61     20.00
    9.4442     31.45     30.64    -20.69     20.00
    9.4544     32.80     30.66    -19.36     20.00
    9.4645     31.67     30.69    -20.52     20.00
    9.4747     32.04     30.71    -20.17     20.00
    9.4848     31.60     30.73    -20.63     20.00
    9.4950     31.67     30.76    -20.59     20.00
    9.5052     31.80     30.78    -20.48     20.00
    9.5153     30.83     30.80    -21.47     20.00
    9.5255     31.68     30.83    -20.65     20.00
    9.5357     31.82     30.85    -20.53     20.00
    9.5458     32.10     30.87    -20.27     20.00
    9.5560     31.53     30.90    -20.87     20.00
    9.5662     32.17     30.92    -20.25     20.00
    9.5763     31.65     30.94    -20.79     20.00
    9.5865     32.61     30.97    -19.86     20.00
    9.5967     32.48     30.99    -20.01     20.00
    9.6068     31.77     31.02    -20.75     20.00
    9.6170     31.82     31.04    -20.72     20.00
    9.6271     31.70     31.07    -20.87     20.00
    9.6373     32.05     31.09    -20.54     20.00
    9.6475     31.70     31.11    -20.91     20.00
    9.6576     32.25     31.14    -20.39     20.00
    9.6678     32.79     31.16    -19.87     20.00
    9.6780     31.98     31.19    -20.71     20.00
    9.6881     31.96     31.21    -20.75     20.00
    9.6983     31.51     31.24    -21.23     20.00
    9.7085     31.61     31.26    -21.15     20.00
    9.7186     32.43     31.29    -20.36     20.00
    9.7288     31.73     31.31    -21.08     20.00
    9.7390     32.23     31.34    -20.61     20.00
    9.7491     32.53     31.37    -20.34     20.00
    9.7593     31.92     31.39    -20.97     20.00
    9.7694     32.24     31.42    -20.68     20.00
