 => TITLE: 
 => Data file name: C:\Users\stefano\Nextcloud2\projects\programming\python\xrd-winplotr\folder\G311\G311--5-40-0.01-1000ms.xy
 => Instrm        :    1
 => Lambda(1&2)   :   1.54060  1.54060
 => Numb.of.points:      2913
 => Numb.of.peaks :         8
    2Theta     Yobs     Ycalc  Yobs-Ycal    Backg    Bragg     Posr  Intensity   FWHM    Eta
    6.5168     22.80     26.63    -22.66     22.75   18.5531      1.66     173.25  1.0626  0.4438
    6.5270     23.49     26.64    -21.98     22.75   20.3518      1.66      73.62  1.5482  0.4438
    6.5371     23.25     26.65    -22.23     22.75   22.3330      1.66      89.09  1.1967  0.4438
    6.5473     23.01     26.66    -22.48     22.75   28.5314      1.66      39.83  1.6029  0.4438
    6.5575     22.77     26.67    -22.73     22.75   29.9342      1.66       5.00  1.7361  0.4438
    6.5676     23.21     26.67    -22.29     22.75   33.2759      1.66       5.23  1.7361  0.4438
    6.5778     23.14     26.68    -22.37     22.75   17.0000      1.66      68.25  2.1174  0.4438
    6.5880     23.27     26.69    -22.25     22.75   20.0919      1.66     876.62 10.7256  0.4438
    6.5981     23.45     26.70    -22.08     22.75
    6.6083     23.24     26.71    -22.30     22.75
    6.6185     22.61     26.72    -22.94     22.75
    6.6286     22.59     26.73    -22.97     22.75
    6.6388     23.27     26.74    -22.30     22.76
    6.6489     23.49     26.74    -22.08     22.76
    6.6591     22.15     26.75    -23.43     22.76
    6.6693     22.82     26.76    -22.77     22.76
    6.6794     22.98     26.77    -22.62     22.76
    6.6896     23.16     26.78    -22.45     22.76
    6.6998     23.42     26.79    -22.20     22.76
    6.7099     23.56     26.80    -22.07     22.76
    6.7201     23.34     26.81    -22.30     22.76
    6.7303     23.41     26.82    -22.24     22.76
    6.7404     23.99     26.83    -21.67     22.76
    6.7506     23.49     26.84    -22.18     22.76
    6.7608     22.96     26.84    -22.71     22.76
    6.7709     23.54     26.85    -22.14     22.76
    6.7811     23.64     26.86    -22.05     22.76
    6.7913     23.78     26.87    -21.92     22.77
    6.8014     23.24     26.88    -22.47     22.77
    6.8116     23.94     26.89    -21.78     22.77
    6.8217     23.58     26.90    -22.15     22.77
    6.8319     23.24     26.91    -22.50     22.77
    6.8421     23.89     26.92    -21.86     22.77
    6.8522     23.48     26.93    -22.28     22.77
    6.8624     23.32     26.94    -22.45     22.77
    6.8726     23.09     26.95    -22.69     22.77
    6.8827     23.68     26.96    -22.11     22.77
    6.8929     22.52     26.97    -23.28     22.77
    6.9031     23.31     26.98    -22.50     22.77
    6.9132     23.98     26.99    -21.84     22.77
    6.9234     23.76     27.00    -22.07     22.77
    6.9336     23.12     27.01    -22.72     22.78
    6.9437     23.73     27.02    -22.12     22.78
    6.9539     23.96     27.03    -21.90     22.78
    6.9640     23.18     27.04    -22.69     22.78
    6.9742     23.48     27.05    -22.40     22.78
    6.9844     23.58     27.06    -22.31     22.78
    6.9945     23.30     27.07    -22.60     22.78
    7.0047     23.45     27.08    -22.46     22.78
    7.0149     24.01     27.09    -21.91     22.78
    7.0250     23.73     27.10    -22.20     22.78
    7.0352     23.55     27.11    -22.39     22.78
    7.0454     23.49     27.12    -22.46     22.78
    7.0555     23.71     27.13    -22.25     22.78
    7.0657     24.01     27.14    -21.96     22.78
    7.0759     23.91     27.15    -22.07     22.78
    7.0860     23.13     27.16    -22.86     22.79
    7.0962     24.09     27.17    -21.91     22.79
    7.1064     24.22     27.18    -21.79     22.79
    7.1165     22.99     27.19    -23.03     22.79
    7.1267     23.65     27.20    -22.38     22.79
    7.1368     24.29     27.21    -21.75     22.79
    7.1470     23.58     27.22    -22.47     22.79
    7.1572     23.16     27.23    -22.90     22.79
    7.1673     24.00     27.24    -22.07     22.79
    7.1775     23.99     27.25    -22.09     22.79
    7.1877     24.13     27.26    -21.96     22.79
    7.1978     24.12     27.27    -21.98     22.79
    7.2080     23.49     27.28    -22.62     22.79
    7.2182     24.49     27.29    -21.63     22.79
    7.2283     24.13     27.30    -22.00     22.80
    7.2385     24.64     27.32    -21.51     22.80
    7.2487     24.27     27.33    -21.89     22.80
    7.2588     24.09     27.34    -22.08     22.80
    7.2690     23.40     27.35    -22.78     22.80
    7.2791     24.35     27.36    -21.84     22.80
    7.2893     23.68     27.37    -22.52     22.80
    7.2995     23.46     27.38    -22.75     22.80
    7.3096     25.50     27.39    -20.72     22.80
    7.3198     24.24     27.40    -21.99     22.80
    7.3300     24.07     27.41    -22.17     22.80
    7.3401     24.30     27.43    -21.96     22.80
    7.3503     24.85     27.44    -21.42     22.80
    7.3605     24.44     27.45    -21.84     22.80
    7.3706     23.99     27.46    -22.30     22.80
    7.3808     23.57     27.47    -22.73     22.81
    7.3910     23.37     27.48    -22.94     22.81
    7.4011     24.43     27.49    -21.89     22.81
    7.4113     24.46     27.51    -21.88     22.81
    7.4215     24.26     27.52    -22.09     22.81
    7.4316     25.22     27.53    -21.14     22.81
    7.4418     23.76     27.54    -22.61     22.81
    7.4519     23.95     27.55    -22.43     22.81
    7.4621     24.31     27.56    -22.08     22.81
    7.4723     24.48     27.57    -21.92     22.81
    7.4824     23.62     27.59    -22.80     22.81
    7.4926     23.85     27.60    -22.58     22.81
    7.5028     25.01     27.61    -21.43     22.81
    7.5129     24.40     27.62    -22.05     22.81
    7.5231     25.06     27.63    -21.40     22.82
    7.5333     24.84     27.65    -21.64     22.82
    7.5434     25.43     27.66    -21.06     22.82
    7.5536     25.54     27.67    -20.96     22.82
    7.5638     24.43     27.68    -22.08     22.82
    7.5739     24.89     27.69    -21.63     22.82
    7.5841     24.49     27.71    -22.05     22.82
    7.5942     25.36     27.72    -21.19     22.82
    7.6044     25.01     27.73    -21.55     22.82
    7.6146     25.46     27.74    -21.11     22.82
    7.6247     24.99     27.76    -21.60     22.82
    7.6349     24.45     27.77    -22.15     22.82
    7.6451     24.41     27.78    -22.20     22.82
    7.6552     25.22     27.79    -21.40     22.82
    7.6654     24.40     27.81    -22.24     22.83
    7.6756     24.81     27.82    -21.84     22.83
    7.6857     24.86     27.83    -21.80     22.83
    7.6959     24.35     27.84    -22.32     22.83
    7.7061     24.51     27.86    -22.18     22.83
    7.7162     24.73     27.87    -21.97     22.83
    7.7264     25.05     27.88    -21.66     22.83
    7.7365     25.35     27.89    -21.38     22.83
    7.7467     24.99     27.91    -21.75     22.83
    7.7569     24.59     27.92    -22.16     22.83
    7.7670     24.60     27.93    -22.16     22.83
    7.7772     24.93     27.95    -21.85     22.83
    7.7874     25.22     27.96    -21.57     22.83
    7.7975     24.68     27.97    -22.12     22.83
    7.8077     25.49     27.99    -21.33     22.83
    7.8179     25.37     28.00    -21.46     22.84
    7.8280     24.99     28.01    -21.85     22.84
    7.8382     25.72     28.03    -21.14     22.84
    7.8484     24.91     28.04    -21.96     22.84
    7.8585     25.03     28.05    -21.85     22.84
    7.8687     25.91     28.07    -20.99     22.84
    7.8789     24.64     28.08    -22.27     22.84
    7.8890     25.66     28.09    -21.26     22.84
    7.8992     25.60     28.11    -21.34     22.84
    7.9093     25.67     28.12    -21.28     22.84
    7.9195     25.34     28.13    -21.62     22.84
    7.9297     26.20     28.15    -20.78     22.84
    7.9398     24.93     28.16    -22.06     22.84
    7.9500     26.45     28.18    -20.56     22.84
    7.9602     25.79     28.19    -21.23     22.85
    7.9703     25.52     28.20    -21.51     22.85
    7.9805     25.37     28.22    -21.68     22.85
    7.9907     26.27     28.23    -20.79     22.85
    8.0008     25.78     28.25    -21.30     22.85
    8.0110     25.68     28.26    -21.41     22.85
    8.0212     26.69     28.27    -20.41     22.85
    8.0313     25.65     28.29    -21.47     22.85
    8.0415     25.59     28.30    -21.54     22.85
    8.0516     25.67     28.32    -21.48     22.85
    8.0618     26.09     28.33    -21.07     22.85
    8.0720     26.02     28.35    -21.16     22.85
    8.0821     25.51     28.36    -21.68     22.85
    8.0923     25.49     28.38    -21.72     22.85
    8.1025     25.51     28.39    -21.71     22.85
    8.1126     26.29     28.40    -20.94     22.86
    8.1228     25.99     28.42    -21.26     22.86
    8.1330     25.68     28.43    -21.58     22.86
    8.1431     26.21     28.45    -21.07     22.86
    8.1533     25.90     28.46    -21.39     22.86
    8.1635     25.84     28.48    -21.47     22.86
    8.1736     26.96     28.49    -20.36     22.86
    8.1838     25.25     28.51    -22.09     22.86
    8.1940     26.02     28.52    -21.33     22.86
    8.2041     25.90     28.54    -21.47     22.86
    8.2143     26.74     28.55    -20.64     22.86
    8.2244     26.51     28.57    -20.89     22.86
    8.2346     26.80     28.59    -20.62     22.86
    8.2448     26.71     28.60    -20.72     22.86
    8.2549     26.29     28.62    -21.16     22.87
    8.2651     27.02     28.63    -20.44     22.87
    8.2753     26.34     28.65    -21.14     22.87
    8.2854     26.23     28.66    -21.26     22.87
    8.2956     26.91     28.68    -20.60     22.87
    8.3058     26.26     28.69    -21.26     22.87
    8.3159     26.34     28.71    -21.20     22.87
    8.3261     27.73     28.73    -19.83     22.87
    8.3363     27.16     28.74    -20.41     22.87
    8.3464     26.76     28.76    -20.83     22.87
    8.3566     26.87     28.77    -20.73     22.87
    8.3667     26.77     28.79    -20.85     22.87
    8.3769     26.29     28.81    -21.35     22.87
    8.3871     26.48     28.82    -21.17     22.87
    8.3972     26.73     28.84    -20.94     22.87
    8.4074     27.12     28.85    -20.56     22.88
    8.4176     27.52     28.87    -20.18     22.88
    8.4277     26.94     28.89    -20.78     22.88
    8.4379     27.27     28.90    -20.46     22.88
    8.4481     27.27     28.92    -20.48     22.88
    8.4582     27.23     28.94    -20.54     22.88
    8.4684     27.41     28.95    -20.37     22.88
    8.4786     27.27     28.97    -20.53     22.88
    8.4887     26.27     28.99    -21.55     22.88
    8.4989     26.95     29.00    -20.88     22.88
    8.5091     26.72     29.02    -21.13     22.88
    8.5192     26.78     29.04    -21.09     22.88
    8.5294     27.52     29.05    -20.36     22.88
    8.5395     27.05     29.07    -20.85     22.88
    8.5497     27.54     29.09    -20.38     22.89
    8.5599     27.46     29.11    -20.48     22.89
    8.5700     27.01     29.12    -20.94     22.89
    8.5802     27.19     29.14    -20.78     22.89
    8.5904     27.29     29.16    -20.70     22.89
    8.6005     28.48     29.17    -19.52     22.89
    8.6107     27.56     29.19    -20.46     22.89
    8.6209     27.77     29.21    -20.27     22.89
    8.6310     27.84     29.23    -20.22     22.89
    8.6412     27.16     29.24    -20.91     22.89
    8.6514     27.45     29.26    -20.64     22.89
    8.6615     28.44     29.28    -19.67     22.89
    8.6717     27.61     29.30    -20.52     22.89
    8.6818     27.15     29.32    -21.00     22.89
    8.6920     27.63     29.33    -20.53     22.89
    8.7022     27.43     29.35    -20.75     22.90
    8.7123     27.36     29.37    -20.84     22.90
    8.7225     27.88     29.39    -20.34     22.90
    8.7327     27.68     29.41    -20.56     22.90
    8.7428     26.88     29.42    -21.37     22.90
    8.7530     27.97     29.44    -20.30     22.90
    8.7632     28.06     29.46    -20.23     22.90
    8.7733     27.71     29.48    -20.60     22.90
    8.7835     27.94     29.50    -20.39     22.90
    8.7937     28.27     29.52    -20.08     22.90
    8.8038     28.44     29.54    -19.93     22.90
    8.8140     28.32     29.55    -20.06     22.90
    8.8242     28.32     29.57    -20.08     22.90
    8.8343     28.15     29.59    -20.27     22.90
    8.8445     28.48     29.61    -19.96     22.91
    8.8546     27.70     29.63    -20.76     22.91
    8.8648     28.01     29.65    -20.47     22.91
    8.8750     28.18     29.67    -20.32     22.91
    8.8851     27.87     29.69    -20.65     22.91
    8.8953     28.05     29.71    -20.49     22.91
    8.9055     27.59     29.73    -20.97     22.91
    8.9156     27.41     29.75    -21.17     22.91
    8.9258     28.57     29.77    -20.03     22.91
    8.9360     27.83     29.79    -20.79     22.91
    8.9461     27.35     29.80    -21.28     22.91
    8.9563     28.66     29.82    -19.99     22.91
    8.9665     28.74     29.84    -19.93     22.91
    8.9766     27.64     29.86    -21.05     22.91
    8.9868     28.55     29.88    -20.16     22.91
    8.9969     28.88     29.90    -19.85     22.92
    9.0071     28.09     29.92    -20.66     22.92
    9.0173     27.88     29.94    -20.89     22.92
    9.0274     28.45     29.96    -20.34     22.92
    9.0376     29.10     29.98    -19.71     22.92
    9.0478     28.93     30.00    -19.90     22.92
    9.0579     28.02     30.03    -20.84     22.92
    9.0681     28.98     30.05    -19.90     22.92
    9.0783     29.07     30.07    -19.83     22.92
    9.0884     28.55     30.09    -20.37     22.92
    9.0986     28.31     30.11    -20.63     22.92
    9.1088     29.34     30.13    -19.62     22.92
    9.1189     29.21     30.15    -19.77     22.92
    9.1291     28.52     30.17    -20.48     22.92
    9.1393     28.50     30.19    -20.52     22.93
    9.1494     29.23     30.21    -19.81     22.93
    9.1596     28.99     30.23    -20.07     22.93
    9.1697     29.20     30.25    -19.88     22.93
    9.1799     29.16     30.28    -19.95     22.93
    9.1901     28.88     30.30    -20.25     22.93
    9.2002     29.58     30.32    -19.57     22.93
    9.2104     29.33     30.34    -19.84     22.93
    9.2206     29.01     30.36    -20.18     22.93
    9.2307     29.05     30.38    -20.16     22.93
    9.2409     29.83     30.40    -19.40     22.93
    9.2511     29.32     30.43    -19.94     22.93
    9.2612     29.53     30.45    -19.75     22.93
    9.2714     29.91     30.47    -19.39     22.93
    9.2816     29.29     30.49    -20.03     22.93
    9.2917     29.83     30.51    -19.51     22.94
    9.3019     30.13     30.54    -19.24     22.94
    9.3120     29.43     30.56    -19.96     22.94
    9.3222     29.62     30.58    -19.79     22.94
    9.3324     30.05     30.60    -19.38     22.94
    9.3425     30.16     30.63    -19.30     22.94
    9.3527     30.01     30.65    -19.47     22.94
    9.3629     30.07     30.67    -19.43     22.94
    9.3730     29.93     30.69    -19.59     22.94
    9.3832     29.75     30.72    -19.80     22.94
    9.3934     30.20     30.74    -19.37     22.94
    9.4035     30.43     30.76    -19.16     22.94
    9.4137     29.61     30.79    -20.01     22.94
    9.4239     30.41     30.81    -19.23     22.94
    9.4340     30.18     30.83    -19.48     22.95
    9.4442     29.45     30.86    -20.24     22.95
    9.4544     30.49     30.88    -19.22     22.95
    9.4645     30.13     30.90    -19.60     22.95
    9.4747     30.24     30.93    -19.52     22.95
    9.4848     30.29     30.95    -19.49     22.95
    9.4950     29.84     30.97    -19.96     22.95
    9.5052     30.23     31.00    -19.60     22.95
    9.5153     30.40     31.02    -19.45     22.95
    9.5255     29.79     31.04    -20.08     22.95
    9.5357     29.84     31.07    -20.06     22.95
    9.5458     30.92     31.09    -19.00     22.95
    9.5560     29.39     31.12    -20.56     22.95
    9.5662     30.03     31.14    -19.94     22.95
    9.5763     30.18     31.17    -19.82     22.96
    9.5865     29.72     31.19    -20.30     22.96
    9.5967     30.15     31.21    -19.89     22.96
    9.6068     30.40     31.24    -19.67     22.96
    9.6170     30.15     31.26    -19.94     22.96
    9.6271     30.41     31.29    -19.71     22.96
    9.6373     30.59     31.31    -19.55     22.96
    9.6475     30.28     31.34    -19.89     22.96
    9.6576     29.77     31.36    -20.42     22.96
    9.6678     30.21     31.39    -20.01     22.96
    9.6780     29.68     31.41    -20.56     22.96
    9.6881     31.04     31.44    -19.23     22.96
    9.6983     30.18     31.46    -20.11     22.96
    9.7085     30.01     31.49    -20.31     22.96
    9.7186     31.18     31.52    -19.17     22.96
    9.7288     30.34     31.54    -20.03     22.97
    9.7390     30.60     31.57    -19.80     22.97
    9.7491     31.05     31.59    -19.37     22.97
    9.7593     30.62     31.62    -19.83     22.97
    9.7694     31.15     31.64    -19.32     22.97
    9.7796     30.35     31.67    -20.15     22.97
    9.7898     29.71     31.70    -20.82     22.97
    9.7999     31.13     31.72    -19.42     22.97
    9.8101     31.25     31.75    -19.33     22.97
    9.8203     30.22     31.78    -20.39     22.97
    9.8304     30.72     31.80    -19.91     22.97
    9.8406     31.00     31.83    -19.66     22.97
    9.8508     31.60     31.86    -19.09     22.97
    9.8609     30.77     31.88    -19.94     22.97
    9.8711     31.81     31.91    -18.93     22.98
    9.8813     30.20     31.94    -20.57     22.98
    9.8914     31.12     31.96    -19.67     22.98
    9.9016     30.50     31.99    -20.32     22.98
    9.9118     31.77     32.02    -19.08     22.98
    9.9219     31.30     32.04    -19.57     22.98
    9.9321     31.41     32.07    -19.49     22.98
    9.9422     31.85     32.10    -19.08     22.98
    9.9524     31.32     32.13    -19.64     22.98
    9.9626     30.77     32.15    -20.21     22.98
    9.9727     31.80     32.18    -19.21     22.98
    9.9829     31.60     32.21    -19.44     22.98
    9.9931     32.86     32.24    -18.21     22.98
   10.0032     31.57     32.27    -19.53     22.98
   10.0134     32.28     32.29    -18.84     22.98
   10.0236     31.33     32.32    -19.82     22.99
   10.0337     31.51     32.35    -19.67     22.99
   10.0439     30.95     32.38    -20.26     22.99
   10.0541     31.79     32.41    -19.45     22.99
   10.0642     32.43     32.44    -18.84     22.99
   10.0744     31.79     32.47    -19.51     22.99
   10.0845     31.48     32.49    -19.84     22.99
   10.0947     32.73     32.52    -18.62     22.99
   10.1049     31.63     32.55    -19.75     22.99
   10.1150     32.20     32.58    -19.21     22.99
   10.1252     31.86     32.61    -19.58     22.99
   10.1354     32.76     32.64    -18.71     22.99
   10.1455     31.68     32.67    -19.82     22.99
   10.1557     31.24     32.70    -20.29     22.99
   10.1659     32.55     32.73    -19.01     23.00
   10.1760     31.93     32.76    -19.66     23.00
   10.1862     32.30     32.79    -19.32     23.00
   10.1964     31.62     32.82    -20.03     23.00
   10.2065     31.18     32.85    -20.50     23.00
   10.2167     32.05     32.88    -19.66     23.00
   10.2269     32.01     32.91    -19.73     23.00
   10.2370     32.12     32.94    -19.65     23.00
   10.2472     31.62     32.97    -20.18     23.00
   10.2573     31.48     33.00    -20.35     23.00
   10.2675     32.63     33.03    -19.23     23.00
