 => TITLE: 
 => Data file name: C:\Users\stefano\Nextcloud2\uni\master-thesis\XRD\data\G311\G311--5-40-0.01-1000ms.xy
 => Instrm        :    1
 => Lambda(1&2)   :   1.54060  1.54060
 => Numb.of.points:      2951
 => Numb.of.peaks :         7
    2Theta     Yobs     Ycalc  Yobs-Ycal    Backg    Bragg     Posr  Intensity   FWHM    Eta
    6.0086     23.18     24.46    -20.41     20.00   18.5232      1.38     111.46  0.8405  0.5596
    6.0187     24.13     24.46    -19.46     20.00   20.4445      1.38       7.49  0.5192  0.5596
    6.0289     23.91     24.47    -19.69     20.00   22.3804      1.38      66.19  1.0649  0.5596
    6.0391     22.40     24.48    -21.21     20.00   28.3305      1.38      63.83  2.2321  0.5596
    6.0492     23.65     24.48    -19.96     20.00   29.9081      1.38      30.06  3.2636  0.5596
    6.0594     23.55     24.49    -20.07     20.00   33.1976      1.38      23.11  3.0776  0.5596
    6.0696     24.14     24.50    -19.49     20.00   19.5008      1.38    1156.42  8.6504  0.5371
    6.0797     23.90     24.50    -19.73     20.00
    6.0899     23.93     24.51    -19.71     20.00
    6.1001     23.45     24.52    -20.20     20.00
    6.1102     23.66     24.52    -19.99     20.00
    6.1204     23.63     24.53    -20.03     20.00
    6.1306     22.86     24.54    -20.81     20.00
    6.1407     23.19     24.54    -20.48     20.00
    6.1509     23.66     24.55    -20.02     20.00
    6.1611     22.79     24.56    -20.90     20.00
    6.1712     23.52     24.57    -20.18     20.00
    6.1814     22.89     24.57    -20.81     20.00
    6.1915     22.82     24.58    -20.89     20.00
    6.2017     23.18     24.59    -20.54     20.00
    6.2119     23.37     24.59    -20.35     20.00
    6.2220     22.98     24.60    -20.75     20.00
    6.2322     23.34     24.61    -20.40     20.00
    6.2424     22.60     24.61    -21.14     20.00
    6.2525     23.48     24.62    -20.27     20.00
    6.2627     23.17     24.63    -20.59     20.00
    6.2729     22.91     24.64    -20.86     20.00
    6.2830     23.47     24.64    -20.30     20.00
    6.2932     23.16     24.65    -20.62     20.00
    6.3034     22.99     24.66    -20.80     20.00
    6.3135     22.64     24.66    -21.15     20.00
    6.3237     22.76     24.67    -21.04     20.00
    6.3338     23.60     24.68    -20.21     20.00
    6.3440     23.68     24.69    -20.14     20.00
    6.3542     23.46     24.69    -20.36     20.00
    6.3643     23.51     24.70    -20.32     20.00
    6.3745     23.44     24.71    -20.40     20.00
    6.3847     23.07     24.72    -20.78     20.00
    6.3948     21.90     24.72    -21.95     20.00
    6.4050     23.75     24.73    -20.11     20.00
    6.4152     22.99     24.74    -20.88     20.00
    6.4253     23.11     24.75    -20.77     20.00
    6.4355     23.10     24.75    -20.78     20.00
    6.4457     22.71     24.76    -21.18     20.00
    6.4558     21.96     24.77    -21.94     20.00
    6.4660     23.02     24.78    -20.89     20.00
    6.4762     22.91     24.78    -21.00     20.00
    6.4863     22.85     24.79    -21.07     20.00
    6.4965     23.51     24.80    -20.42     20.00
    6.5066     22.33     24.81    -21.61     20.00
    6.5168     22.80     24.81    -21.14     20.00
    6.5270     23.49     24.82    -20.46     20.00
    6.5371     23.25     24.83    -20.71     20.00
    6.5473     23.01     24.84    -20.96     20.00
    6.5575     22.77     24.85    -21.21     20.00
    6.5676     23.21     24.85    -20.77     20.00
    6.5778     23.14     24.86    -20.85     20.00
    6.5880     23.27     24.87    -20.73     20.00
    6.5981     23.45     24.88    -20.56     20.00
    6.6083     23.24     24.88    -20.77     20.00
    6.6185     22.61     24.89    -21.41     20.00
    6.6286     22.59     24.90    -21.44     20.00
    6.6388     23.27     24.91    -20.77     20.00
    6.6489     23.49     24.92    -20.56     20.00
    6.6591     22.15     24.92    -21.90     20.00
    6.6693     22.82     24.93    -21.24     20.00
    6.6794     22.98     24.94    -21.09     20.00
    6.6896     23.16     24.95    -20.92     20.00
    6.6998     23.42     24.96    -20.67     20.00
    6.7099     23.56     24.97    -20.54     20.00
    6.7201     23.34     24.97    -20.76     20.00
    6.7303     23.41     24.98    -20.70     20.00
    6.7404     23.99     24.99    -20.13     20.00
    6.7506     23.49     25.00    -20.64     20.00
    6.7608     22.96     25.01    -21.18     20.00
    6.7709     23.54     25.02    -20.61     20.00
    6.7811     23.64     25.02    -20.51     20.00
    6.7913     23.78     25.03    -20.38     20.00
    6.8014     23.24     25.04    -20.93     20.00
    6.8116     23.94     25.05    -20.24     20.00
    6.8217     23.58     25.06    -20.61     20.00
    6.8319     23.24     25.07    -20.96     20.00
    6.8421     23.89     25.07    -20.31     20.00
    6.8522     23.48     25.08    -20.73     20.00
    6.8624     23.32     25.09    -20.90     20.00
    6.8726     23.09     25.10    -21.14     20.00
    6.8827     23.68     25.11    -20.56     20.00
    6.8929     22.52     25.12    -21.73     20.00
    6.9031     23.31     25.13    -20.95     20.00
    6.9132     23.98     25.13    -20.28     20.00
    6.9234     23.76     25.14    -20.51     20.00
    6.9336     23.12     25.15    -21.16     20.00
    6.9437     23.73     25.16    -20.56     20.00
    6.9539     23.96     25.17    -20.34     20.00
    6.9640     23.18     25.18    -21.13     20.00
    6.9742     23.48     25.19    -20.84     20.00
    6.9844     23.58     25.20    -20.75     20.00
    6.9945     23.30     25.21    -21.04     20.00
    7.0047     23.45     25.21    -20.89     20.00
    7.0149     24.01     25.22    -20.34     20.00
    7.0250     23.73     25.23    -20.63     20.00
    7.0352     23.55     25.24    -20.82     20.00
    7.0454     23.49     25.25    -20.89     20.00
    7.0555     23.71     25.26    -20.68     20.00
    7.0657     24.01     25.27    -20.39     20.00
    7.0759     23.91     25.28    -20.50     20.00
    7.0860     23.13     25.29    -21.29     20.00
    7.0962     24.09     25.30    -20.34     20.00
    7.1064     24.22     25.31    -20.22     20.00
    7.1165     22.99     25.31    -21.45     20.00
    7.1267     23.65     25.32    -20.80     20.00
    7.1368     24.29     25.33    -20.17     20.00
    7.1470     23.58     25.34    -20.89     20.00
    7.1572     23.16     25.35    -21.32     20.00
    7.1673     24.00     25.36    -20.49     20.00
    7.1775     23.99     25.37    -20.51     20.00
    7.1877     24.13     25.38    -20.38     20.00
    7.1978     24.12     25.39    -20.40     20.00
    7.2080     23.49     25.40    -21.04     20.00
    7.2182     24.49     25.41    -20.05     20.00
    7.2283     24.13     25.42    -20.42     20.00
    7.2385     24.64     25.43    -19.92     20.00
    7.2487     24.27     25.44    -20.30     20.00
    7.2588     24.09     25.45    -20.49     20.00
    7.2690     23.40     25.46    -21.19     20.00
    7.2791     24.35     25.47    -20.25     20.00
    7.2893     23.68     25.48    -20.93     20.00
    7.2995     23.46     25.49    -21.16     20.00
    7.3096     25.50     25.50    -19.13     20.00
    7.3198     24.24     25.51    -20.40     20.00
    7.3300     24.07     25.52    -20.58     20.00
    7.3401     24.30     25.53    -20.36     20.00
    7.3503     24.85     25.54    -19.82     20.00
    7.3605     24.44     25.55    -20.24     20.00
    7.3706     23.99     25.56    -20.70     20.00
    7.3808     23.57     25.57    -21.13     20.00
    7.3910     23.37     25.58    -21.34     20.00
    7.4011     24.43     25.59    -20.29     20.00
    7.4113     24.46     25.60    -20.27     20.00
    7.4215     24.26     25.61    -20.48     20.00
    7.4316     25.22     25.62    -19.53     20.00
    7.4418     23.76     25.63    -21.00     20.00
    7.4519     23.95     25.64    -20.82     20.00
    7.4621     24.31     25.65    -20.47     20.00
    7.4723     24.48     25.66    -20.31     20.00
    7.4824     23.62     25.67    -21.18     20.00
    7.4926     23.85     25.68    -20.96     20.00
    7.5028     25.01     25.69    -19.81     20.00
    7.5129     24.40     25.70    -20.43     20.00
    7.5231     25.06     25.71    -19.78     20.00
    7.5333     24.84     25.73    -20.02     20.00
    7.5434     25.43     25.74    -19.44     20.00
    7.5536     25.54     25.75    -19.34     20.00
    7.5638     24.43     25.76    -20.46     20.00
    7.5739     24.89     25.77    -20.01     20.00
    7.5841     24.49     25.78    -20.42     20.00
    7.5942     25.36     25.79    -19.56     20.00
    7.6044     25.01     25.80    -19.92     20.00
    7.6146     25.46     25.81    -19.48     20.00
    7.6247     24.99     25.82    -19.96     20.00
    7.6349     24.45     25.83    -20.51     20.00
    7.6451     24.41     25.85    -20.57     20.00
    7.6552     25.22     25.86    -19.77     20.00
    7.6654     24.40     25.87    -20.60     20.00
    7.6756     24.81     25.88    -20.20     20.00
    7.6857     24.86     25.89    -20.16     20.00
    7.6959     24.35     25.90    -20.68     20.00
    7.7061     24.51     25.91    -20.53     20.00
    7.7162     24.73     25.93    -20.33     20.00
    7.7264     25.05     25.94    -20.02     20.00
    7.7365     25.35     25.95    -19.73     20.00
    7.7467     24.99     25.96    -20.10     20.00
    7.7569     24.59     25.97    -20.51     20.00
    7.7670     24.60     25.98    -20.51     20.00
    7.7772     24.93     25.99    -20.19     20.00
    7.7874     25.22     26.01    -19.92     20.00
    7.7975     24.68     26.02    -20.47     20.00
    7.8077     25.49     26.03    -19.67     20.00
    7.8179     25.37     26.04    -19.80     20.00
    7.8280     24.99     26.05    -20.19     20.00
    7.8382     25.72     26.07    -19.48     20.00
    7.8484     24.91     26.08    -20.30     20.00
    7.8585     25.03     26.09    -20.19     20.00
    7.8687     25.91     26.10    -19.32     20.00
    7.8789     24.64     26.11    -20.60     20.00
    7.8890     25.66     26.13    -19.60     20.00
    7.8992     25.60     26.14    -19.67     20.00
    7.9093     25.67     26.15    -19.61     20.00
    7.9195     25.34     26.16    -19.95     20.00
    7.9297     26.20     26.18    -19.11     20.00
    7.9398     24.93     26.19    -20.39     20.00
    7.9500     26.45     26.20    -18.88     20.00
    7.9602     25.79     26.21    -19.55     20.00
    7.9703     25.52     26.23    -19.84     20.00
    7.9805     25.37     26.24    -20.00     20.00
    7.9907     26.27     26.25    -19.11     20.00
    8.0008     25.78     26.26    -19.61     20.00
    8.0110     25.68     26.28    -19.73     20.00
    8.0212     26.69     26.29    -18.73     20.00
    8.0313     25.65     26.30    -19.78     20.00
    8.0415     25.59     26.32    -19.86     20.00
    8.0516     25.67     26.33    -19.79     20.00
    8.0618     26.09     26.34    -19.38     20.00
    8.0720     26.02     26.35    -19.46     20.00
    8.0821     25.51     26.37    -19.99     20.00
    8.0923     25.49     26.38    -20.02     20.00
    8.1025     25.51     26.39    -20.01     20.00
    8.1126     26.29     26.41    -19.25     20.00
    8.1228     25.99     26.42    -19.56     20.00
    8.1330     25.68     26.43    -19.88     20.00
    8.1431     26.21     26.45    -19.37     20.00
    8.1533     25.90     26.46    -19.69     20.00
    8.1635     25.84     26.48    -19.77     20.00
    8.1736     26.96     26.49    -18.66     20.00
    8.1838     25.25     26.50    -20.38     20.00
    8.1940     26.02     26.52    -19.63     20.00
    8.2041     25.90     26.53    -19.76     20.00
    8.2143     26.74     26.54    -18.93     20.00
    8.2244     26.51     26.56    -19.18     20.00
    8.2346     26.80     26.57    -18.90     20.00
    8.2448     26.71     26.59    -19.01     20.00
    8.2549     26.29     26.60    -19.44     20.00
    8.2651     27.02     26.61    -18.72     20.00
    8.2753     26.34     26.63    -19.42     20.00
    8.2854     26.23     26.64    -19.54     20.00
    8.2956     26.91     26.66    -18.88     20.00
    8.3058     26.26     26.67    -19.54     20.00
    8.3159     26.34     26.69    -19.48     20.00
    8.3261     27.73     26.70    -18.10     20.00
    8.3363     27.16     26.71    -18.68     20.00
    8.3464     26.76     26.73    -19.10     20.00
    8.3566     26.87     26.74    -19.00     20.00
    8.3667     26.77     26.76    -19.12     20.00
    8.3769     26.29     26.77    -19.61     20.00
    8.3871     26.48     26.79    -19.44     20.00
    8.3972     26.73     26.80    -19.20     20.00
    8.4074     27.12     26.82    -18.83     20.00
    8.4176     27.52     26.83    -18.44     20.00
    8.4277     26.94     26.85    -19.04     20.00
    8.4379     27.27     26.86    -18.72     20.00
    8.4481     27.27     26.88    -18.74     20.00
    8.4582     27.23     26.89    -18.79     20.00
    8.4684     27.41     26.91    -18.63     20.00
    8.4786     27.27     26.92    -18.78     20.00
    8.4887     26.27     26.94    -19.80     20.00
    8.4989     26.95     26.95    -19.13     20.00
    8.5091     26.72     26.97    -19.38     20.00
    8.5192     26.78     26.99    -19.34     20.00
    8.5294     27.52     27.00    -18.61     20.00
    8.5395     27.05     27.02    -19.10     20.00
    8.5497     27.54     27.03    -18.62     20.00
    8.5599     27.46     27.05    -18.72     20.00
    8.5700     27.01     27.06    -19.18     20.00
    8.5802     27.19     27.08    -19.02     20.00
    8.5904     27.29     27.10    -18.94     20.00
    8.6005     28.48     27.11    -17.76     20.00
    8.6107     27.56     27.13    -18.70     20.00
    8.6209     27.77     27.15    -18.51     20.00
    8.6310     27.84     27.16    -18.45     20.00
    8.6412     27.16     27.18    -19.15     20.00
    8.6514     27.45     27.19    -18.87     20.00
    8.6615     28.44     27.21    -17.90     20.00
    8.6717     27.61     27.23    -18.75     20.00
    8.6818     27.15     27.24    -19.22     20.00
    8.6920     27.63     27.26    -18.76     20.00
    8.7022     27.43     27.28    -18.98     20.00
    8.7123     27.36     27.29    -19.06     20.00
    8.7225     27.88     27.31    -18.56     20.00
    8.7327     27.68     27.33    -18.78     20.00
    8.7428     26.88     27.35    -19.60     20.00
    8.7530     27.97     27.36    -18.52     20.00
    8.7632     28.06     27.38    -18.45     20.00
    8.7733     27.71     27.40    -18.82     20.00
    8.7835     27.94     27.41    -18.60     20.00
    8.7937     28.27     27.43    -18.29     20.00
    8.8038     28.44     27.45    -18.14     20.00
    8.8140     28.32     27.47    -18.28     20.00
    8.8242     28.32     27.48    -18.29     20.00
    8.8343     28.15     27.50    -18.48     20.00
    8.8445     28.48     27.52    -18.17     20.00
    8.8546     27.70     27.54    -18.97     20.00
    8.8648     28.01     27.56    -18.68     20.00
    8.8750     28.18     27.57    -18.52     20.00
    8.8851     27.87     27.59    -18.85     20.00
    8.8953     28.05     27.61    -18.69     20.00
    8.9055     27.59     27.63    -19.17     20.00
    8.9156     27.41     27.65    -19.37     20.00
    8.9258     28.57     27.67    -18.23     20.00
    8.9360     27.83     27.68    -18.98     20.00
    8.9461     27.35     27.70    -19.48     20.00
    8.9563     28.66     27.72    -18.19     20.00
    8.9665     28.74     27.74    -18.13     20.00
    8.9766     27.64     27.76    -19.25     20.00
    8.9868     28.55     27.78    -18.36     20.00
    8.9969     28.88     27.80    -18.05     20.00
    9.0071     28.09     27.82    -18.86     20.00
    9.0173     27.88     27.83    -19.08     20.00
    9.0274     28.45     27.85    -18.53     20.00
    9.0376     29.10     27.87    -17.90     20.00
    9.0478     28.93     27.89    -18.09     20.00
    9.0579     28.02     27.91    -19.02     20.00
    9.0681     28.98     27.93    -18.08     20.00
    9.0783     29.07     27.95    -18.01     20.00
    9.0884     28.55     27.97    -18.55     20.00
    9.0986     28.31     27.99    -18.81     20.00
    9.1088     29.34     28.01    -17.80     20.00
    9.1189     29.21     28.03    -17.95     20.00
    9.1291     28.52     28.05    -18.66     20.00
    9.1393     28.50     28.07    -18.70     20.00
    9.1494     29.23     28.09    -17.99     20.00
    9.1596     28.99     28.11    -18.25     20.00
    9.1697     29.20     28.13    -18.06     20.00
    9.1799     29.16     28.15    -18.12     20.00
    9.1901     28.88     28.17    -18.42     20.00
    9.2002     29.58     28.19    -17.74     20.00
    9.2104     29.33     28.21    -18.01     20.00
    9.2206     29.01     28.23    -18.35     20.00
    9.2307     29.05     28.26    -18.34     20.00
    9.2409     29.83     28.28    -17.58     20.00
    9.2511     29.32     28.30    -18.11     20.00
    9.2612     29.53     28.32    -17.92     20.00
    9.2714     29.91     28.34    -17.56     20.00
    9.2816     29.29     28.36    -18.20     20.00
    9.2917     29.83     28.38    -17.68     20.00
    9.3019     30.13     28.40    -17.40     20.00
    9.3120     29.43     28.43    -18.13     20.00
    9.3222     29.62     28.45    -17.96     20.00
    9.3324     30.05     28.47    -17.55     20.00
    9.3425     30.16     28.49    -17.46     20.00
    9.3527     30.01     28.51    -17.63     20.00
    9.3629     30.07     28.54    -17.60     20.00
    9.3730     29.93     28.56    -17.76     20.00
    9.3832     29.75     28.58    -17.96     20.00
    9.3934     30.20     28.60    -17.53     20.00
    9.4035     30.43     28.62    -17.32     20.00
    9.4137     29.61     28.65    -18.17     20.00
    9.4239     30.41     28.67    -17.39     20.00
    9.4340     30.18     28.69    -17.64     20.00
    9.4442     29.45     28.72    -18.40     20.00
    9.4544     30.49     28.74    -17.38     20.00
    9.4645     30.13     28.76    -17.76     20.00
    9.4747     30.24     28.78    -17.67     20.00
    9.4848     30.29     28.81    -17.65     20.00
    9.4950     29.84     28.83    -18.12     20.00
    9.5052     30.23     28.85    -17.75     20.00
    9.5153     30.40     28.88    -17.61     20.00
    9.5255     29.79     28.90    -18.24     20.00
    9.5357     29.84     28.93    -18.22     20.00
    9.5458     30.92     28.95    -17.16     20.00
    9.5560     29.39     28.97    -18.71     20.00
    9.5662     30.03     29.00    -18.10     20.00
    9.5763     30.18     29.02    -17.97     20.00
    9.5865     29.72     29.05    -18.46     20.00
    9.5967     30.15     29.07    -18.05     20.00
    9.6068     30.40     29.09    -17.82     20.00
    9.6170     30.15     29.12    -18.10     20.00
    9.6271     30.41     29.14    -17.86     20.00
    9.6373     30.59     29.17    -17.71     20.00
    9.6475     30.28     29.19    -18.04     20.00
    9.6576     29.77     29.22    -18.58     20.00
    9.6678     30.21     29.24    -18.16     20.00
    9.6780     29.68     29.27    -18.72     20.00
    9.6881     31.04     29.29    -17.38     20.00
    9.6983     30.18     29.32    -18.27     20.00
    9.7085     30.01     29.35    -18.47     20.00
    9.7186     31.18     29.37    -17.32     20.00
    9.7288     30.34     29.40    -18.19     20.00
    9.7390     30.60     29.42    -17.95     20.00
    9.7491     31.05     29.45    -17.53     20.00
    9.7593     30.62     29.48    -17.99     20.00
    9.7694     31.15     29.50    -17.48     20.00
