 => TITLE: 
 => Data file name: C:\Users\stefano\Nextcloud2\inbox\plot\G101\G101--5-40-0.01-1000ms.xy
 => Instrm        :    1
 => Lambda(1&2)   :   1.54060  1.54060
 => Numb.of.points:      2926
 => Numb.of.peaks :         8
    2Theta     Yobs     Ycalc  Yobs-Ycal    Backg    Bragg     Posr  Intensity   FWHM    Eta
    6.4152     22.84     23.60    -28.16     14.02   18.6691     -2.47     209.52  0.7795  0.9330
    6.4253     23.12     23.61    -27.89     14.02   20.5514     -2.47     105.99  1.2119  0.9330
    6.4355     23.94     23.62    -27.09     14.02   22.4937     -2.47     188.42  1.2144  0.9330
    6.4457     23.43     23.64    -27.61     14.02   28.5768     -2.47      55.41  1.0791  0.9330
    6.4558     23.63     23.65    -27.43     14.02   29.8559     -2.47      29.28  3.4239  0.9330
    6.4660     23.24     23.66    -27.83     14.02   33.3803     -2.47      14.01  1.4460  0.9330
    6.4762     23.12     23.68    -27.96     14.02   16.9837     -2.47     181.12  3.8523  0.9330
    6.4863     23.75     23.69    -27.35     14.02   20.1180     -2.47     991.99 12.3939  0.9330
    6.4965     23.61     23.71    -27.50     14.02
    6.5066     23.00     23.72    -28.13     14.02
    6.5168     23.07     23.73    -28.07     14.03
    6.5270     22.85     23.75    -28.30     14.03
    6.5371     23.45     23.76    -27.72     14.03
    6.5473     22.73     23.78    -28.45     14.03
    6.5575     23.57     23.79    -27.63     14.03
    6.5676     23.54     23.80    -27.67     14.03
    6.5778     23.45     23.82    -27.78     14.03
    6.5880     22.46     23.83    -28.78     14.03
    6.5981     22.93     23.85    -28.32     14.03
    6.6083     23.59     23.86    -27.68     14.03
    6.6185     23.39     23.88    -27.89     14.03
    6.6286     23.71     23.89    -27.59     14.03
    6.6388     24.54     23.90    -26.77     14.03
    6.6489     23.58     23.92    -27.75     14.03
    6.6591     23.30     23.93    -28.04     14.04
    6.6693     23.07     23.95    -28.28     14.04
    6.6794     24.30     23.96    -27.07     14.04
    6.6896     22.90     23.98    -28.48     14.04
    6.6998     23.11     23.99    -28.29     14.04
    6.7099     24.27     24.01    -27.14     14.04
    6.7201     24.11     24.02    -27.32     14.04
    6.7303     23.55     24.04    -27.89     14.04
    6.7404     23.59     24.05    -27.87     14.04
    6.7506     23.47     24.06    -28.00     14.04
    6.7608     23.02     24.08    -28.47     14.04
    6.7709     24.05     24.09    -27.45     14.04
    6.7811     24.45     24.11    -27.06     14.04
    6.7913     24.01     24.12    -27.52     14.04
    6.8014     24.13     24.14    -27.41     14.04
    6.8116     23.67     24.15    -27.89     14.05
    6.8217     23.05     24.17    -28.52     14.05
    6.8319     23.90     24.18    -27.69     14.05
    6.8421     24.06     24.20    -27.54     14.05
    6.8522     23.90     24.21    -27.72     14.05
    6.8624     23.30     24.23    -28.33     14.05
    6.8726     23.11     24.24    -28.54     14.05
    6.8827     24.02     24.26    -27.64     14.05
    6.8929     22.99     24.27    -28.69     14.05
    6.9031     24.07     24.29    -27.62     14.05
    6.9132     23.30     24.30    -28.41     14.05
    6.9234     24.42     24.32    -27.30     14.05
    6.9336     23.65     24.33    -28.09     14.05
    6.9437     24.04     24.35    -27.72     14.05
    6.9539     23.95     24.36    -27.82     14.06
    6.9640     23.91     24.38    -27.88     14.06
    6.9742     23.98     24.40    -27.82     14.06
    6.9844     23.54     24.41    -28.28     14.06
    6.9945     23.52     24.43    -28.31     14.06
    7.0047     24.31     24.44    -27.54     14.06
    7.0149     24.12     24.46    -27.74     14.06
    7.0250     23.63     24.47    -28.25     14.06
    7.0352     24.01     24.49    -27.88     14.06
    7.0454     24.19     24.50    -27.72     14.06
    7.0555     24.30     24.52    -27.62     14.06
    7.0657     24.88     24.53    -27.06     14.06
    7.0759     23.52     24.55    -28.44     14.06
    7.0860     24.88     24.57    -27.09     14.06
    7.0962     24.56     24.58    -27.43     14.06
    7.1064     24.23     24.60    -27.77     14.07
    7.1165     23.33     24.61    -28.69     14.07
    7.1267     24.89     24.63    -27.15     14.07
    7.1368     24.06     24.64    -27.99     14.07
    7.1470     23.47     24.66    -28.60     14.07
    7.1572     25.02     24.68    -27.06     14.07
    7.1673     23.98     24.69    -28.12     14.07
    7.1775     23.80     24.71    -28.31     14.07
    7.1877     24.50     24.72    -27.63     14.07
    7.1978     24.60     24.74    -27.55     14.07
    7.2080     24.45     24.76    -27.71     14.07
    7.2182     23.87     24.77    -28.31     14.07
    7.2283     23.36     24.79    -28.83     14.07
    7.2385     24.42     24.81    -27.79     14.07
    7.2487     23.30     24.82    -28.93     14.08
    7.2588     23.78     24.84    -28.46     14.08
    7.2690     24.25     24.85    -28.01     14.08
    7.2791     24.23     24.87    -28.05     14.08
    7.2893     24.41     24.89    -27.88     14.08
    7.2995     24.95     24.90    -27.36     14.08
    7.3096     24.43     24.92    -27.90     14.08
    7.3198     24.89     24.94    -27.45     14.08
    7.3300     24.54     24.95    -27.82     14.08
    7.3401     24.64     24.97    -27.73     14.08
    7.3503     24.26     24.99    -28.13     14.08
    7.3605     24.22     25.00    -28.19     14.08
    7.3706     24.98     25.02    -27.44     14.08
    7.3808     25.05     25.03    -27.39     14.08
    7.3910     24.66     25.05    -27.80     14.09
    7.4011     24.09     25.07    -28.38     14.09
    7.4113     24.58     25.09    -27.91     14.09
    7.4215     23.82     25.10    -28.69     14.09
    7.4316     24.89     25.12    -27.63     14.09
    7.4418     24.64     25.14    -27.90     14.09
    7.4519     24.88     25.15    -27.68     14.09
    7.4621     25.17     25.17    -27.41     14.09
    7.4723     25.42     25.19    -27.17     14.09
    7.4824     24.60     25.20    -28.01     14.09
    7.4926     24.91     25.22    -27.72     14.09
    7.5028     25.59     25.24    -27.05     14.09
    7.5129     24.87     25.25    -27.79     14.09
    7.5231     25.09     25.27    -27.59     14.09
    7.5333     24.38     25.29    -28.31     14.09
    7.5434     24.65     25.31    -28.06     14.10
    7.5536     24.94     25.32    -27.79     14.10
    7.5638     24.55     25.34    -28.20     14.10
    7.5739     24.52     25.36    -28.24     14.10
    7.5841     24.45     25.38    -28.33     14.10
    7.5942     25.21     25.39    -27.59     14.10
    7.6044     24.86     25.41    -27.96     14.10
    7.6146     25.70     25.43    -27.13     14.10
    7.6247     25.24     25.44    -27.61     14.10
    7.6349     24.97     25.46    -27.90     14.10
    7.6451     25.68     25.48    -27.21     14.10
    7.6552     25.96     25.50    -26.94     14.10
    7.6654     25.46     25.52    -27.46     14.10
    7.6756     24.68     25.53    -28.26     14.10
    7.6857     24.87     25.55    -28.09     14.11
    7.6959     25.16     25.57    -27.81     14.11
    7.7061     25.55     25.59    -27.44     14.11
    7.7162     25.96     25.60    -27.05     14.11
    7.7264     25.60     25.62    -27.43     14.11
    7.7365     25.53     25.64    -27.52     14.11
    7.7467     25.63     25.66    -27.43     14.11
    7.7569     25.45     25.68    -27.63     14.11
    7.7670     25.26     25.69    -27.84     14.11
    7.7772     25.97     25.71    -27.15     14.11
    7.7874     24.65     25.73    -28.49     14.11
    7.7975     25.40     25.75    -27.75     14.11
    7.8077     25.51     25.77    -27.66     14.11
    7.8179     25.68     25.78    -27.51     14.11
    7.8280     25.46     25.80    -27.75     14.11
    7.8382     25.78     25.82    -27.45     14.12
    7.8484     25.26     25.84    -27.98     14.12
    7.8585     25.51     25.86    -27.75     14.12
    7.8687     24.70     25.88    -28.58     14.12
    7.8789     25.22     25.89    -28.08     14.12
    7.8890     26.11     25.91    -27.21     14.12
    7.8992     26.27     25.93    -27.07     14.12
    7.9093     25.37     25.95    -27.99     14.12
    7.9195     26.18     25.97    -27.19     14.12
    7.9297     26.12     25.99    -27.27     14.12
    7.9398     26.01     26.01    -27.40     14.12
    7.9500     26.21     26.02    -27.22     14.12
    7.9602     26.27     26.04    -27.18     14.12
    7.9703     26.59     26.06    -26.88     14.12
    7.9805     25.77     26.08    -27.72     14.13
    7.9907     26.28     26.10    -27.23     14.13
    8.0008     25.68     26.12    -27.84     14.13
    8.0110     25.95     26.14    -27.59     14.13
    8.0212     25.98     26.16    -27.58     14.13
    8.0313     24.71     26.17    -28.87     14.13
    8.0415     26.29     26.19    -27.31     14.13
    8.0516     26.90     26.21    -26.72     14.13
    8.0618     25.71     26.23    -27.93     14.13
    8.0720     25.50     26.25    -28.16     14.13
    8.0821     26.46     26.27    -27.22     14.13
    8.0923     26.04     26.29    -27.66     14.13
    8.1025     26.06     26.31    -27.66     14.13
    8.1126     26.81     26.33    -26.92     14.13
    8.1228     25.69     26.35    -28.06     14.14
    8.1330     26.73     26.37    -27.04     14.14
    8.1431     26.95     26.39    -26.84     14.14
    8.1533     26.37     26.41    -27.44     14.14
    8.1635     26.11     26.43    -27.72     14.14
    8.1736     26.90     26.45    -26.95     14.14
    8.1838     27.52     26.47    -26.35     14.14
    8.1940     26.54     26.49    -27.35     14.14
    8.2041     26.18     26.50    -27.73     14.14
    8.2143     27.04     26.52    -26.89     14.14
    8.2244     26.80     26.54    -27.15     14.14
    8.2346     26.38     26.56    -27.59     14.14
    8.2448     26.26     26.58    -27.73     14.14
    8.2549     26.48     26.60    -27.53     14.14
    8.2651     26.82     26.62    -27.21     14.14
    8.2753     26.52     26.64    -27.53     14.15
    8.2854     25.99     26.66    -28.08     14.15
    8.2956     27.39     26.68    -26.70     14.15
    8.3058     26.45     26.70    -27.66     14.15
    8.3159     26.35     26.72    -27.78     14.15
    8.3261     27.19     26.74    -26.96     14.15
    8.3363     26.73     26.77    -27.44     14.15
    8.3464     26.86     26.79    -27.33     14.15
    8.3566     27.13     26.81    -27.08     14.15
    8.3667     26.93     26.83    -27.30     14.15
    8.3769     27.46     26.85    -26.79     14.15
    8.3871     26.88     26.87    -27.39     14.15
    8.3972     27.39     26.89    -26.90     14.15
    8.4074     26.98     26.91    -27.33     14.15
    8.4176     27.69     26.93    -26.64     14.16
    8.4277     27.07     26.95    -27.29     14.16
    8.4379     27.24     26.97    -27.14     14.16
    8.4481     27.73     26.99    -26.67     14.16
    8.4582     27.66     27.01    -26.76     14.16
    8.4684     27.08     27.03    -27.36     14.16
    8.4786     26.91     27.05    -27.55     14.16
    8.4887     27.84     27.07    -26.64     14.16
    8.4989     26.73     27.10    -27.77     14.16
    8.5091     27.18     27.12    -27.34     14.16
    8.5192     27.71     27.14    -26.83     14.16
    8.5294     28.57     27.16    -26.00     14.16
    8.5395     27.00     27.18    -27.59     14.16
    8.5497     27.02     27.20    -27.59     14.16
    8.5599     27.63     27.22    -27.00     14.17
    8.5700     27.74     27.24    -26.91     14.17
    8.5802     27.68     27.27    -26.99     14.17
    8.5904     27.41     27.29    -27.28     14.17
    8.6005     27.29     27.31    -27.42     14.17
    8.6107     27.98     27.33    -26.76     14.17
    8.6209     28.55     27.35    -26.21     14.17
    8.6310     27.77     27.37    -27.01     14.17
    8.6412     27.54     27.39    -27.26     14.17
    8.6514     27.10     27.42    -27.72     14.17
    8.6615     28.14     27.44    -26.70     14.17
    8.6717     27.46     27.46    -27.41     14.17
    8.6818     27.77     27.48    -27.12     14.17
    8.6920     28.20     27.50    -26.71     14.17
    8.7022     27.51     27.53    -27.42     14.17
    8.7123     29.00     27.55    -25.95     14.18
    8.7225     27.95     27.57    -27.03     14.18
    8.7327     27.83     27.59    -27.17     14.18
    8.7428     27.51     27.61    -27.51     14.18
    8.7530     28.24     27.64    -26.80     14.18
    8.7632     26.57     27.66    -28.49     14.18
    8.7733     28.47     27.68    -26.62     14.18
    8.7835     27.76     27.70    -27.35     14.18
    8.7937     27.70     27.73    -27.43     14.18
    8.8038     28.83     27.75    -26.32     14.18
    8.8140     27.86     27.77    -27.32     14.18
    8.8242     27.71     27.79    -27.49     14.18
    8.8343     27.91     27.82    -27.31     14.18
    8.8445     29.06     27.84    -26.18     14.18
    8.8546     27.37     27.86    -27.90     14.19
    8.8648     28.30     27.88    -26.99     14.19
    8.8750     29.52     27.91    -25.79     14.19
    8.8851     27.99     27.93    -27.35     14.19
    8.8953     28.57     27.95    -26.79     14.19
    8.9055     29.10     27.98    -26.28     14.19
    8.9156     28.49     28.00    -26.91     14.19
    8.9258     28.40     28.02    -27.03     14.19
    8.9360     29.23     28.04    -26.22     14.19
    8.9461     28.48     28.07    -26.99     14.19
    8.9563     28.90     28.09    -26.60     14.19
    8.9665     28.18     28.11    -27.34     14.19
    8.9766     28.85     28.14    -26.69     14.19
    8.9868     28.66     28.16    -26.91     14.19
    8.9969     28.57     28.18    -27.02     14.19
    9.0071     28.90     28.21    -26.71     14.20
    9.0173     28.76     28.23    -26.88     14.20
    9.0274     29.46     28.25    -26.20     14.20
    9.0376     28.98     28.28    -26.70     14.20
    9.0478     29.13     28.30    -26.58     14.20
    9.0579     28.90     28.33    -26.83     14.20
    9.0681     28.44     28.35    -27.32     14.20
    9.0783     29.34     28.37    -26.44     14.20
    9.0884     28.78     28.40    -27.02     14.20
    9.0986     28.62     28.42    -27.21     14.20
    9.1088     28.82     28.44    -27.03     14.20
    9.1189     29.13     28.47    -26.74     14.20
    9.1291     28.87     28.49    -27.03     14.20
    9.1393     29.09     28.52    -26.83     14.20
    9.1494     29.95     28.54    -26.00     14.21
    9.1596     29.88     28.57    -26.09     14.21
    9.1697     28.58     28.59    -27.42     14.21
    9.1799     29.09     28.61    -26.93     14.21
    9.1901     29.12     28.64    -26.92     14.21
    9.2002     30.21     28.66    -25.86     14.21
    9.2104     29.50     28.69    -26.59     14.21
    9.2206     28.59     28.71    -27.53     14.21
    9.2307     29.23     28.74    -26.91     14.21
    9.2409     29.63     28.76    -26.54     14.21
    9.2511     29.82     28.79    -26.37     14.21
    9.2612     30.05     28.81    -26.17     14.21
    9.2714     28.47     28.84    -27.77     14.21
    9.2816     27.70     28.86    -28.57     14.21
    9.2917     29.61     28.89    -26.68     14.22
    9.3019     30.32     28.91    -26.00     14.22
    9.3120     29.49     28.94    -26.85     14.22
    9.3222     29.15     28.96    -27.22     14.22
    9.3324     30.22     28.99    -26.17     14.22
    9.3425     29.64     29.01    -26.78     14.22
    9.3527     29.60     29.04    -26.84     14.22
    9.3629     30.40     29.06    -26.07     14.22
    9.3730     29.26     29.09    -27.23     14.22
    9.3832     29.99     29.11    -26.53     14.22
    9.3934     30.20     29.14    -26.35     14.22
    9.4035     29.13     29.16    -27.44     14.22
    9.4137     30.21     29.19    -26.39     14.22
    9.4239     30.20     29.22    -26.42     14.22
    9.4340     30.59     29.24    -26.06     14.22
    9.4442     29.77     29.27    -26.90     14.23
    9.4544     30.28     29.29    -26.42     14.23
    9.4645     30.16     29.32    -26.57     14.23
    9.4747     30.15     29.35    -26.60     14.23
    9.4848     29.86     29.37    -26.92     14.23
    9.4950     29.80     29.40    -27.00     14.23
    9.5052     30.73     29.42    -26.10     14.23
    9.5153     29.65     29.45    -27.21     14.23
    9.5255     30.02     29.48    -26.86     14.23
    9.5357     30.42     29.50    -26.49     14.23
    9.5458     30.09     29.53    -26.85     14.23
    9.5560     29.77     29.56    -27.19     14.23
    9.5662     30.13     29.58    -26.86     14.23
    9.5763     31.51     29.61    -25.51     14.23
    9.5865     30.35     29.64    -26.69     14.24
    9.5967     30.26     29.66    -26.81     14.24
    9.6068     30.27     29.69    -26.83     14.24
    9.6170     30.17     29.72    -26.95     14.24
    9.6271     29.88     29.74    -27.27     14.24
    9.6373     29.93     29.77    -27.25     14.24
    9.6475     29.95     29.80    -27.25     14.24
    9.6576     31.03     29.83    -26.20     14.24
    9.6678     30.74     29.85    -26.52     14.24
    9.6780     30.94     29.88    -26.35     14.24
    9.6881     30.11     29.91    -27.20     14.24
    9.6983     31.06     29.93    -26.28     14.24
    9.7085     30.55     29.96    -26.82     14.24
    9.7186     30.57     29.99    -26.83     14.24
    9.7288     30.74     30.02    -26.68     14.24
    9.7390     30.19     30.05    -27.26     14.25
    9.7491     30.74     30.07    -26.74     14.25
    9.7593     31.48     30.10    -26.03     14.25
    9.7694     30.29     30.13    -27.24     14.25
    9.7796     30.95     30.16    -26.61     14.25
    9.7898     30.89     30.18    -26.70     14.25
    9.7999     30.16     30.21    -27.46     14.25
    9.8101     30.26     30.24    -27.39     14.25
    9.8203     30.74     30.27    -26.94     14.25
    9.8304     31.20     30.30    -26.50     14.25
    9.8406     31.32     30.33    -26.41     14.25
    9.8508     31.24     30.35    -26.52     14.25
    9.8609     30.42     30.38    -27.37     14.25
    9.8711     30.96     30.41    -26.86     14.25
    9.8813     30.95     30.44    -26.90     14.26
    9.8914     31.20     30.47    -26.67     14.26
    9.9016     31.70     30.50    -26.20     14.26
    9.9118     31.09     30.53    -26.84     14.26
    9.9219     30.95     30.55    -27.01     14.26
    9.9321     31.43     30.58    -26.56     14.26
    9.9422     31.17     30.61    -26.85     14.26
    9.9524     31.51     30.64    -26.54     14.26
    9.9626     30.85     30.67    -27.23     14.26
    9.9727     31.45     30.70    -26.66     14.26
    9.9829     31.78     30.73    -26.36     14.26
    9.9931     31.38     30.76    -26.78     14.26
   10.0032     31.68     30.79    -26.51     14.26
   10.0134     32.49     30.82    -25.73     14.26
   10.0236     30.42     30.85    -27.83     14.27
   10.0337     30.98     30.88    -27.30     14.27
   10.0439     31.41     30.91    -26.90     14.27
   10.0541     31.66     30.94    -26.68     14.27
   10.0642     31.49     30.97    -26.88     14.27
   10.0744     31.47     31.00    -26.93     14.27
   10.0845     31.96     31.03    -26.47     14.27
   10.0947     31.82     31.06    -26.64     14.27
   10.1049     31.30     31.09    -27.19     14.27
   10.1150     31.99     31.12    -26.53     14.27
   10.1252     31.34     31.15    -27.21     14.27
   10.1354     30.99     31.18    -27.59     14.27
   10.1455     31.63     31.21    -26.98     14.27
   10.1557     31.09     31.24    -27.55     14.27
   10.1659     31.82     31.27    -26.85     14.27
   10.1760     32.23     31.30    -26.48     14.28
