 => TITLE: 
 => Data file name: C:\Users\stefano\Nextcloud2\uni\master-thesis\XRD\data\G101\G101--5-40-0.01-1000ms.xy
 => Instrm        :    1
 => Lambda(1&2)   :   1.54060  1.54060
 => Numb.of.points:      2951
 => Numb.of.peaks :         7
    2Theta     Yobs     Ycalc  Yobs-Ycal    Backg    Bragg     Posr  Intensity   FWHM    Eta
    6.0086     23.25     24.82    -28.98     20.00   18.6560     -2.47     154.81  0.7449  0.6123
    6.0187     23.49     24.83    -28.74     20.00   20.4835     -2.47      28.16  0.7028  0.6123
    6.0289     24.61     24.83    -27.63     20.00   22.3893     -2.47     112.87  1.0775  0.6123
    6.0391     24.29     24.84    -27.96     20.00   28.5505     -2.47      64.08  1.3561  0.6123
    6.0492     23.86     24.85    -28.39     20.00   30.0909     -2.47      25.51  2.2361  0.6123
    6.0594     23.98     24.86    -28.28     20.00   33.3020     -2.47      20.27  2.2361  0.6123
    6.0696     23.29     24.86    -28.98     20.00   19.6457     -2.47    1089.99  8.9083  0.6123
    6.0797     23.01     24.87    -29.27     20.00
    6.0899     24.02     24.88    -28.26     20.00
    6.1001     24.48     24.88    -27.81     20.00
    6.1102     24.13     24.89    -28.17     20.00
    6.1204     23.63     24.90    -28.68     20.00
    6.1306     23.51     24.91    -28.80     20.00
    6.1407     23.77     24.91    -28.55     20.00
    6.1509     23.48     24.92    -28.85     20.00
    6.1611     23.68     24.93    -28.65     20.00
    6.1712     23.79     24.94    -28.55     20.00
    6.1814     23.63     24.94    -28.72     20.00
    6.1915     23.48     24.95    -28.88     20.00
    6.2017     23.27     24.96    -29.09     20.00
    6.2119     23.77     24.97    -28.60     20.00
    6.2220     23.34     24.97    -29.04     20.00
    6.2322     24.24     24.98    -28.15     20.00
    6.2424     23.59     24.99    -28.80     20.00
    6.2525     23.08     25.00    -29.32     20.00
    6.2627     23.92     25.00    -28.49     20.00
    6.2729     23.64     25.01    -28.78     20.00
    6.2830     23.68     25.02    -28.74     20.00
    6.2932     23.76     25.03    -28.67     20.00
    6.3034     23.71     25.03    -28.73     20.00
    6.3135     22.95     25.04    -29.50     20.00
    6.3237     23.65     25.05    -28.80     20.00
    6.3338     23.32     25.06    -29.14     20.00
    6.3440     24.17     25.06    -28.30     20.00
    6.3542     23.54     25.07    -28.94     20.00
    6.3643     23.23     25.08    -29.26     20.00
    6.3745     23.49     25.09    -29.00     20.00
    6.3847     23.91     25.09    -28.59     20.00
    6.3948     23.20     25.10    -29.31     20.00
    6.4050     23.45     25.11    -29.07     20.00
    6.4152     22.84     25.12    -29.68     20.00
    6.4253     23.12     25.13    -29.41     20.00
    6.4355     23.94     25.13    -28.60     20.00
    6.4457     23.43     25.14    -29.12     20.00
    6.4558     23.63     25.15    -28.93     20.00
    6.4660     23.24     25.16    -29.32     20.00
    6.4762     23.12     25.17    -29.45     20.00
    6.4863     23.75     25.17    -28.83     20.00
    6.4965     23.61     25.18    -28.98     20.00
    6.5066     23.00     25.19    -29.60     20.00
    6.5168     23.07     25.20    -29.53     20.00
    6.5270     22.85     25.21    -29.76     20.00
    6.5371     23.45     25.21    -29.17     20.00
    6.5473     22.73     25.22    -29.90     20.00
    6.5575     23.57     25.23    -29.07     20.00
    6.5676     23.54     25.24    -29.10     20.00
    6.5778     23.45     25.25    -29.20     20.00
    6.5880     22.46     25.25    -30.20     20.00
    6.5981     22.93     25.26    -29.74     20.00
    6.6083     23.59     25.27    -29.09     20.00
    6.6185     23.39     25.28    -29.30     20.00
    6.6286     23.71     25.29    -28.98     20.00
    6.6388     24.54     25.30    -28.16     20.00
    6.6489     23.58     25.30    -29.13     20.00
    6.6591     23.30     25.31    -29.42     20.00
    6.6693     23.07     25.32    -29.66     20.00
    6.6794     24.30     25.33    -28.44     20.00
    6.6896     22.90     25.34    -29.84     20.00
    6.6998     23.11     25.35    -29.64     20.00
    6.7099     24.27     25.36    -28.49     20.00
    6.7201     24.11     25.36    -28.66     20.00
    6.7303     23.55     25.37    -29.23     20.00
    6.7404     23.59     25.38    -29.20     20.00
    6.7506     23.47     25.39    -29.33     20.00
    6.7608     23.02     25.40    -29.78     20.00
    6.7709     24.05     25.41    -28.76     20.00
    6.7811     24.45     25.42    -28.37     20.00
    6.7913     24.01     25.42    -28.82     20.00
    6.8014     24.13     25.43    -28.71     20.00
    6.8116     23.67     25.44    -29.18     20.00
    6.8217     23.05     25.45    -29.81     20.00
    6.8319     23.90     25.46    -28.97     20.00
    6.8421     24.06     25.47    -28.81     20.00
    6.8522     23.90     25.48    -28.98     20.00
    6.8624     23.30     25.49    -29.59     20.00
    6.8726     23.11     25.50    -29.79     20.00
    6.8827     24.02     25.50    -28.89     20.00
    6.8929     22.99     25.51    -29.93     20.00
    6.9031     24.07     25.52    -28.86     20.00
    6.9132     23.30     25.53    -29.64     20.00
    6.9234     24.42     25.54    -28.53     20.00
    6.9336     23.65     25.55    -29.31     20.00
    6.9437     24.04     25.56    -28.92     20.00
    6.9539     23.95     25.57    -29.02     20.00
    6.9640     23.91     25.58    -29.07     20.00
    6.9742     23.98     25.59    -29.01     20.00
    6.9844     23.54     25.60    -29.46     20.00
    6.9945     23.52     25.60    -29.49     20.00
    7.0047     24.31     25.61    -28.71     20.00
    7.0149     24.12     25.62    -28.91     20.00
    7.0250     23.63     25.63    -29.41     20.00
    7.0352     24.01     25.64    -29.04     20.00
    7.0454     24.19     25.65    -28.87     20.00
    7.0555     24.30     25.66    -28.77     20.00
    7.0657     24.88     25.67    -28.20     20.00
    7.0759     23.52     25.68    -29.57     20.00
    7.0860     24.88     25.69    -28.21     20.00
    7.0962     24.56     25.70    -28.54     20.00
    7.1064     24.23     25.71    -28.88     20.00
    7.1165     23.33     25.72    -29.79     20.00
    7.1267     24.89     25.73    -28.24     20.00
    7.1368     24.06     25.74    -29.08     20.00
    7.1470     23.47     25.75    -29.68     20.00
    7.1572     25.02     25.76    -28.14     20.00
    7.1673     23.98     25.77    -29.19     20.00
    7.1775     23.80     25.78    -29.38     20.00
    7.1877     24.50     25.79    -28.69     20.00
    7.1978     24.60     25.80    -28.60     20.00
    7.2080     24.45     25.81    -28.76     20.00
    7.2182     23.87     25.82    -29.35     20.00
    7.2283     23.36     25.83    -29.87     20.00
    7.2385     24.42     25.84    -28.82     20.00
    7.2487     23.30     25.85    -29.95     20.00
    7.2588     23.78     25.86    -29.48     20.00
    7.2690     24.25     25.87    -29.02     20.00
    7.2791     24.23     25.88    -29.05     20.00
    7.2893     24.41     25.89    -28.88     20.00
    7.2995     24.95     25.90    -28.35     20.00
    7.3096     24.43     25.91    -28.88     20.00
    7.3198     24.89     25.92    -28.43     20.00
    7.3300     24.54     25.93    -28.79     20.00
    7.3401     24.64     25.94    -28.70     20.00
    7.3503     24.26     25.95    -29.09     20.00
    7.3605     24.22     25.96    -29.14     20.00
    7.3706     24.98     25.97    -28.39     20.00
    7.3808     25.05     25.98    -28.33     20.00
    7.3910     24.66     25.99    -28.73     20.00
    7.4011     24.09     26.00    -29.32     20.00
    7.4113     24.58     26.01    -28.84     20.00
    7.4215     23.82     26.02    -29.61     20.00
    7.4316     24.89     26.03    -28.55     20.00
    7.4418     24.64     26.04    -28.81     20.00
    7.4519     24.88     26.05    -28.58     20.00
    7.4621     25.17     26.06    -28.30     20.00
    7.4723     25.42     26.07    -28.06     20.00
    7.4824     24.60     26.08    -28.89     20.00
    7.4926     24.91     26.10    -28.59     20.00
    7.5028     25.59     26.11    -27.92     20.00
    7.5129     24.87     26.12    -28.65     20.00
    7.5231     25.09     26.13    -28.44     20.00
    7.5333     24.38     26.14    -29.16     20.00
    7.5434     24.65     26.15    -28.91     20.00
    7.5536     24.94     26.16    -28.63     20.00
    7.5638     24.55     26.17    -29.03     20.00
    7.5739     24.52     26.18    -29.07     20.00
    7.5841     24.45     26.19    -29.15     20.00
    7.5942     25.21     26.21    -28.40     20.00
    7.6044     24.86     26.22    -28.76     20.00
    7.6146     25.70     26.23    -27.93     20.00
    7.6247     25.24     26.24    -28.41     20.00
    7.6349     24.97     26.25    -28.69     20.00
    7.6451     25.68     26.26    -27.99     20.00
    7.6552     25.96     26.27    -27.72     20.00
    7.6654     25.46     26.28    -28.23     20.00
    7.6756     24.68     26.30    -29.02     20.00
    7.6857     24.87     26.31    -28.84     20.00
    7.6959     25.16     26.32    -28.57     20.00
    7.7061     25.55     26.33    -28.19     20.00
    7.7162     25.96     26.34    -27.79     20.00
    7.7264     25.60     26.35    -28.16     20.00
    7.7365     25.53     26.37    -28.24     20.00
    7.7467     25.63     26.38    -28.15     20.00
    7.7569     25.45     26.39    -28.35     20.00
    7.7670     25.26     26.40    -28.55     20.00
    7.7772     25.97     26.41    -27.85     20.00
    7.7874     24.65     26.42    -29.18     20.00
    7.7975     25.40     26.44    -28.44     20.00
    7.8077     25.51     26.45    -28.34     20.00
    7.8179     25.68     26.46    -28.19     20.00
    7.8280     25.46     26.47    -28.42     20.00
    7.8382     25.78     26.48    -28.11     20.00
    7.8484     25.26     26.50    -28.64     20.00
    7.8585     25.51     26.51    -28.41     20.00
    7.8687     24.70     26.52    -29.23     20.00
    7.8789     25.22     26.53    -28.72     20.00
    7.8890     26.11     26.55    -27.84     20.00
    7.8992     26.27     26.56    -27.69     20.00
    7.9093     25.37     26.57    -28.61     20.00
    7.9195     26.18     26.58    -27.81     20.00
    7.9297     26.12     26.60    -27.88     20.00
    7.9398     26.01     26.61    -28.00     20.00
    7.9500     26.21     26.62    -27.82     20.00
    7.9602     26.27     26.63    -27.77     20.00
    7.9703     26.59     26.65    -27.46     20.00
    7.9805     25.77     26.66    -28.29     20.00
    7.9907     26.28     26.67    -27.80     20.00
    8.0008     25.68     26.68    -28.41     20.00
    8.0110     25.95     26.70    -28.15     20.00
    8.0212     25.98     26.71    -28.14     20.00
    8.0313     24.71     26.72    -29.42     20.00
    8.0415     26.29     26.74    -27.85     20.00
    8.0516     26.90     26.75    -27.26     20.00
    8.0618     25.71     26.76    -28.46     20.00
    8.0720     25.50     26.78    -28.68     20.00
    8.0821     26.46     26.79    -27.73     20.00
    8.0923     26.04     26.80    -28.17     20.00
    8.1025     26.06     26.82    -28.16     20.00
    8.1126     26.81     26.83    -27.42     20.00
    8.1228     25.69     26.84    -28.56     20.00
    8.1330     26.73     26.86    -27.53     20.00
    8.1431     26.95     26.87    -27.32     20.00
    8.1533     26.37     26.88    -27.92     20.00
    8.1635     26.11     26.90    -28.19     20.00
    8.1736     26.90     26.91    -27.42     20.00
    8.1838     27.52     26.92    -26.81     20.00
    8.1940     26.54     26.94    -27.80     20.00
    8.2041     26.18     26.95    -28.18     20.00
    8.2143     27.04     26.96    -27.33     20.00
    8.2244     26.80     26.98    -27.58     20.00
    8.2346     26.38     26.99    -28.02     20.00
    8.2448     26.26     27.01    -28.15     20.00
    8.2549     26.48     27.02    -27.95     20.00
    8.2651     26.82     27.03    -27.62     20.00
    8.2753     26.52     27.05    -27.93     20.00
    8.2854     25.99     27.06    -28.48     20.00
    8.2956     27.39     27.08    -27.09     20.00
    8.3058     26.45     27.09    -28.05     20.00
    8.3159     26.35     27.10    -28.16     20.00
    8.3261     27.19     27.12    -27.34     20.00
    8.3363     26.73     27.13    -27.81     20.00
    8.3464     26.86     27.15    -27.69     20.00
    8.3566     27.13     27.16    -27.44     20.00
    8.3667     26.93     27.18    -27.65     20.00
    8.3769     27.46     27.19    -27.14     20.00
    8.3871     26.88     27.21    -27.73     20.00
    8.3972     27.39     27.22    -27.24     20.00
    8.4074     26.98     27.24    -27.66     20.00
    8.4176     27.69     27.25    -26.97     20.00
    8.4277     27.07     27.27    -27.60     20.00
    8.4379     27.24     27.28    -27.45     20.00
    8.4481     27.73     27.30    -26.97     20.00
    8.4582     27.66     27.31    -27.06     20.00
    8.4684     27.08     27.33    -27.65     20.00
    8.4786     26.91     27.34    -27.84     20.00
    8.4887     27.84     27.36    -26.92     20.00
    8.4989     26.73     27.37    -28.05     20.00
    8.5091     27.18     27.39    -27.61     20.00
    8.5192     27.71     27.40    -27.10     20.00
    8.5294     28.57     27.42    -26.25     20.00
    8.5395     27.00     27.43    -27.84     20.00
    8.5497     27.02     27.45    -27.83     20.00
    8.5599     27.63     27.46    -27.24     20.00
    8.5700     27.74     27.48    -27.15     20.00
    8.5802     27.68     27.50    -27.22     20.00
    8.5904     27.41     27.51    -27.51     20.00
    8.6005     27.29     27.53    -27.64     20.00
    8.6107     27.98     27.54    -26.97     20.00
    8.6209     28.55     27.56    -26.41     20.00
    8.6310     27.77     27.57    -27.21     20.00
    8.6412     27.54     27.59    -27.46     20.00
    8.6514     27.10     27.61    -27.91     20.00
    8.6615     28.14     27.62    -26.89     20.00
    8.6717     27.46     27.64    -27.59     20.00
    8.6818     27.77     27.66    -27.29     20.00
    8.6920     28.20     27.67    -26.88     20.00
    8.7022     27.51     27.69    -27.58     20.00
    8.7123     29.00     27.70    -26.11     20.00
    8.7225     27.95     27.72    -27.18     20.00
    8.7327     27.83     27.74    -27.31     20.00
    8.7428     27.51     27.75    -27.65     20.00
    8.7530     28.24     27.77    -26.94     20.00
    8.7632     26.57     27.79    -28.62     20.00
    8.7733     28.47     27.81    -26.74     20.00
    8.7835     27.76     27.82    -27.47     20.00
    8.7937     27.70     27.84    -27.55     20.00
    8.8038     28.83     27.86    -26.43     20.00
    8.8140     27.86     27.87    -27.42     20.00
    8.8242     27.71     27.89    -27.59     20.00
    8.8343     27.91     27.91    -27.40     20.00
    8.8445     29.06     27.93    -26.27     20.00
    8.8546     27.37     27.94    -27.98     20.00
    8.8648     28.30     27.96    -27.07     20.00
    8.8750     29.52     27.98    -25.86     20.00
    8.8851     27.99     28.00    -27.41     20.00
    8.8953     28.57     28.01    -26.85     20.00
    8.9055     29.10     28.03    -26.34     20.00
    8.9156     28.49     28.05    -26.96     20.00
    8.9258     28.40     28.07    -27.07     20.00
    8.9360     29.23     28.08    -26.26     20.00
    8.9461     28.48     28.10    -27.03     20.00
    8.9563     28.90     28.12    -26.63     20.00
    8.9665     28.18     28.14    -27.36     20.00
    8.9766     28.85     28.16    -26.71     20.00
    8.9868     28.66     28.17    -26.92     20.00
    8.9969     28.57     28.19    -27.03     20.00
    9.0071     28.90     28.21    -26.72     20.00
    9.0173     28.76     28.23    -26.88     20.00
    9.0274     29.46     28.25    -26.19     20.00
    9.0376     28.98     28.27    -26.69     20.00
    9.0478     29.13     28.29    -26.56     20.00
    9.0579     28.90     28.30    -26.81     20.00
    9.0681     28.44     28.32    -27.29     20.00
    9.0783     29.34     28.34    -26.41     20.00
    9.0884     28.78     28.36    -26.99     20.00
    9.0986     28.62     28.38    -27.17     20.00
    9.1088     28.82     28.40    -26.99     20.00
    9.1189     29.13     28.42    -26.69     20.00
    9.1291     28.87     28.44    -26.97     20.00
    9.1393     29.09     28.46    -26.77     20.00
    9.1494     29.95     28.48    -25.93     20.00
    9.1596     29.88     28.50    -26.02     20.00
    9.1697     28.58     28.52    -27.34     20.00
    9.1799     29.09     28.54    -26.85     20.00
    9.1901     29.12     28.56    -26.84     20.00
    9.2002     30.21     28.57    -25.77     20.00
    9.2104     29.50     28.59    -26.50     20.00
    9.2206     28.59     28.61    -27.43     20.00
    9.2307     29.23     28.63    -26.81     20.00
    9.2409     29.63     28.65    -26.43     20.00
    9.2511     29.82     28.68    -26.26     20.00
    9.2612     30.05     28.70    -26.05     20.00
    9.2714     28.47     28.72    -27.65     20.00
    9.2816     27.70     28.74    -28.44     20.00
    9.2917     29.61     28.76    -26.55     20.00
    9.3019     30.32     28.78    -25.86     20.00
    9.3120     29.49     28.80    -26.71     20.00
    9.3222     29.15     28.82    -27.07     20.00
    9.3324     30.22     28.84    -26.03     20.00
    9.3425     29.64     28.86    -26.63     20.00
    9.3527     29.60     28.88    -26.69     20.00
    9.3629     30.40     28.90    -25.91     20.00
    9.3730     29.26     28.92    -27.07     20.00
    9.3832     29.99     28.94    -26.36     20.00
    9.3934     30.20     28.97    -26.17     20.00
    9.4035     29.13     28.99    -27.26     20.00
    9.4137     30.21     29.01    -26.20     20.00
    9.4239     30.20     29.03    -26.24     20.00
    9.4340     30.59     29.05    -25.87     20.00
    9.4442     29.77     29.07    -26.71     20.00
    9.4544     30.28     29.10    -26.22     20.00
    9.4645     30.16     29.12    -26.36     20.00
    9.4747     30.15     29.14    -26.40     20.00
    9.4848     29.86     29.16    -26.71     20.00
    9.4950     29.80     29.18    -26.79     20.00
    9.5052     30.73     29.21    -25.88     20.00
    9.5153     29.65     29.23    -26.98     20.00
    9.5255     30.02     29.25    -26.64     20.00
    9.5357     30.42     29.27    -26.26     20.00
    9.5458     30.09     29.30    -26.61     20.00
    9.5560     29.77     29.32    -26.95     20.00
    9.5662     30.13     29.34    -26.62     20.00
    9.5763     31.51     29.36    -25.26     20.00
    9.5865     30.35     29.39    -26.44     20.00
    9.5967     30.26     29.41    -26.56     20.00
    9.6068     30.27     29.43    -26.57     20.00
    9.6170     30.17     29.46    -26.69     20.00
    9.6271     29.88     29.48    -27.01     20.00
    9.6373     29.93     29.50    -26.98     20.00
    9.6475     29.95     29.53    -26.98     20.00
    9.6576     31.03     29.55    -25.93     20.00
    9.6678     30.74     29.57    -26.24     20.00
    9.6780     30.94     29.60    -26.06     20.00
    9.6881     30.11     29.62    -26.92     20.00
    9.6983     31.06     29.65    -25.99     20.00
    9.7085     30.55     29.67    -26.53     20.00
    9.7186     30.57     29.69    -26.53     20.00
    9.7288     30.74     29.72    -26.38     20.00
    9.7390     30.19     29.74    -26.96     20.00
    9.7491     30.74     29.77    -26.43     20.00
    9.7593     31.48     29.79    -25.72     20.00
    9.7694     30.29     29.82    -26.93     20.00
