 => TITLE: 
 => Data file name: C:\Users\stefano\Nextcloud2\uni\master-thesis\XRD\data\G110\G110--5-40-0.01-1000ms.xy
 => Instrm        :    1
 => Lambda(1&2)   :   1.54060  1.54060
 => Numb.of.points:      2951
 => Numb.of.peaks :         7
    2Theta     Yobs     Ycalc  Yobs-Ycal    Backg    Bragg     Posr  Intensity   FWHM    Eta
    6.0086     24.21     24.84    -28.85     20.00   18.6405     -3.23     150.80  0.7179  0.6343
    6.0187     22.81     24.84    -30.26     20.00   20.5968     -3.23      26.42  0.6265  0.6343
    6.0289     23.58     24.85    -29.49     20.00   22.5292     -3.23     112.21  0.9995  0.6343
    6.0391     24.31     24.86    -28.77     20.00   28.5221     -3.23      64.76  1.3438  0.6343
    6.0492     23.40     24.86    -29.69     20.00   29.9864     -3.23      26.79  2.1224  0.6343
    6.0594     22.86     24.87    -30.23     20.00   33.3542     -3.23      19.20  2.1224  0.6343
    6.0696     22.82     24.88    -30.28     20.00   19.6409     -3.23    1088.13  8.6419  0.6343
    6.0797     23.32     24.89    -29.79     20.00
    6.0899     23.02     24.89    -30.09     20.00
    6.1001     23.08     24.90    -30.04     20.00
    6.1102     23.36     24.91    -29.77     20.00
    6.1204     23.54     24.91    -29.60     20.00
    6.1306     23.07     24.92    -30.07     20.00
    6.1407     23.61     24.93    -29.54     20.00
    6.1509     23.74     24.94    -29.42     20.00
    6.1611     23.59     24.94    -29.57     20.00
    6.1712     23.54     24.95    -29.63     20.00
    6.1814     23.24     24.96    -29.94     20.00
    6.1915     22.85     24.96    -30.34     20.00
    6.2017     23.46     24.97    -29.73     20.00
    6.2119     23.52     24.98    -29.68     20.00
    6.2220     23.11     24.99    -30.10     20.00
    6.2322     23.62     24.99    -29.60     20.00
    6.2424     24.08     25.00    -29.14     20.00
    6.2525     22.77     25.01    -30.46     20.00
    6.2627     23.32     25.02    -29.92     20.00
    6.2729     23.79     25.02    -29.45     20.00
    6.2830     23.43     25.03    -29.82     20.00
    6.2932     23.14     25.04    -30.12     20.00
    6.3034     22.57     25.04    -30.70     20.00
    6.3135     23.15     25.05    -30.12     20.00
    6.3237     22.66     25.06    -30.62     20.00
    6.3338     23.16     25.07    -30.13     20.00
    6.3440     23.97     25.07    -29.33     20.00
    6.3542     23.28     25.08    -30.02     20.00
    6.3643     22.89     25.09    -30.42     20.00
    6.3745     23.23     25.10    -30.09     20.00
    6.3847     22.90     25.11    -30.43     20.00
    6.3948     22.51     25.11    -30.82     20.00
    6.4050     23.77     25.12    -29.57     20.00
    6.4152     23.41     25.13    -29.94     20.00
    6.4253     23.03     25.14    -30.33     20.00
    6.4355     23.00     25.14    -30.37     20.00
    6.4457     23.35     25.15    -30.02     20.00
    6.4558     23.45     25.16    -29.93     20.00
    6.4660     23.12     25.17    -30.27     20.00
    6.4762     22.98     25.17    -30.42     20.00
    6.4863     23.38     25.18    -30.02     20.00
    6.4965     23.34     25.19    -30.07     20.00
    6.5066     23.75     25.20    -29.67     20.00
    6.5168     23.45     25.21    -29.98     20.00
    6.5270     23.17     25.21    -30.27     20.00
    6.5371     23.08     25.22    -30.36     20.00
    6.5473     22.80     25.23    -30.65     20.00
    6.5575     23.36     25.24    -30.10     20.00
    6.5676     21.76     25.25    -31.71     20.00
    6.5778     23.21     25.25    -30.27     20.00
    6.5880     22.71     25.26    -30.77     20.00
    6.5981     23.18     25.27    -30.31     20.00
    6.6083     22.59     25.28    -30.91     20.00
    6.6185     23.41     25.29    -30.10     20.00
    6.6286     23.01     25.29    -30.51     20.00
    6.6388     23.46     25.30    -30.06     20.00
    6.6489     23.67     25.31    -29.86     20.00
    6.6591     23.79     25.32    -29.75     20.00
    6.6693     23.27     25.33    -30.28     20.00
    6.6794     23.60     25.33    -29.96     20.00
    6.6896     22.80     25.34    -30.77     20.00
    6.6998     23.59     25.35    -29.98     20.00
    6.7099     23.59     25.36    -29.99     20.00
    6.7201     22.59     25.37    -31.00     20.00
    6.7303     23.66     25.38    -29.94     20.00
    6.7404     22.66     25.38    -30.95     20.00
    6.7506     22.47     25.39    -31.15     20.00
    6.7608     23.46     25.40    -30.16     20.00
    6.7709     23.60     25.41    -30.03     20.00
    6.7811     23.57     25.42    -30.07     20.00
    6.7913     22.84     25.43    -30.81     20.00
    6.8014     23.08     25.44    -30.58     20.00
    6.8116     23.40     25.44    -30.27     20.00
    6.8217     23.15     25.45    -30.52     20.00
    6.8319     23.43     25.46    -30.25     20.00
    6.8421     23.67     25.47    -30.02     20.00
    6.8522     22.57     25.48    -31.13     20.00
    6.8624     24.00     25.49    -29.71     20.00
    6.8726     22.99     25.50    -30.73     20.00
    6.8827     23.12     25.50    -30.61     20.00
    6.8929     23.90     25.51    -29.84     20.00
    6.9031     22.65     25.52    -31.09     20.00
    6.9132     24.29     25.53    -29.46     20.00
    6.9234     24.07     25.54    -29.69     20.00
    6.9336     22.24     25.55    -31.53     20.00
    6.9437     23.03     25.56    -30.75     20.00
    6.9539     23.30     25.57    -30.49     20.00
    6.9640     23.65     25.57    -30.15     20.00
    6.9742     23.94     25.58    -29.87     20.00
    6.9844     23.76     25.59    -30.05     20.00
    6.9945     23.49     25.60    -30.33     20.00
    7.0047     23.61     25.61    -30.22     20.00
    7.0149     23.13     25.62    -30.71     20.00
    7.0250     23.76     25.63    -30.09     20.00
    7.0352     23.93     25.64    -29.93     20.00
    7.0454     24.56     25.65    -29.31     20.00
    7.0555     23.90     25.66    -29.98     20.00
    7.0657     23.99     25.67    -29.90     20.00
    7.0759     23.80     25.67    -30.10     20.00
    7.0860     23.62     25.68    -30.29     20.00
    7.0962     24.05     25.69    -29.86     20.00
    7.1064     23.28     25.70    -30.64     20.00
    7.1165     23.46     25.71    -30.47     20.00
    7.1267     23.81     25.72    -30.13     20.00
    7.1368     23.83     25.73    -30.12     20.00
    7.1470     23.75     25.74    -30.21     20.00
    7.1572     24.29     25.75    -29.68     20.00
    7.1673     23.67     25.76    -30.31     20.00
    7.1775     23.60     25.77    -30.39     20.00
    7.1877     23.73     25.78    -30.27     20.00
    7.1978     23.43     25.79    -30.58     20.00
    7.2080     23.58     25.80    -30.44     20.00
    7.2182     24.10     25.81    -29.93     20.00
    7.2283     24.15     25.82    -29.89     20.00
    7.2385     23.29     25.83    -30.76     20.00
    7.2487     24.35     25.83    -29.71     20.00
    7.2588     23.85     25.84    -30.22     20.00
    7.2690     23.58     25.85    -30.50     20.00
    7.2791     24.23     25.86    -29.86     20.00
    7.2893     23.85     25.87    -30.25     20.00
    7.2995     24.32     25.88    -29.79     20.00
    7.3096     24.64     25.89    -29.48     20.00
    7.3198     24.09     25.90    -30.04     20.00
    7.3300     23.55     25.91    -30.59     20.00
    7.3401     24.98     25.92    -29.17     20.00
    7.3503     24.16     25.93    -30.00     20.00
    7.3605     24.53     25.94    -29.64     20.00
    7.3706     23.41     25.95    -30.77     20.00
    7.3808     24.31     25.96    -29.88     20.00
    7.3910     24.02     25.97    -30.18     20.00
    7.4011     23.81     25.98    -30.40     20.00
    7.4113     24.54     25.99    -29.68     20.00
    7.4215     24.65     26.00    -29.58     20.00
    7.4316     24.94     26.01    -29.30     20.00
    7.4418     24.54     26.02    -29.71     20.00
    7.4519     24.26     26.03    -30.00     20.00
    7.4621     24.75     26.04    -29.52     20.00
    7.4723     24.30     26.06    -29.98     20.00
    7.4824     24.60     26.07    -29.69     20.00
    7.4926     24.66     26.08    -29.64     20.00
    7.5028     25.08     26.09    -29.23     20.00
    7.5129     24.99     26.10    -29.33     20.00
    7.5231     24.67     26.11    -29.66     20.00
    7.5333     24.32     26.12    -30.02     20.00
    7.5434     24.21     26.13    -30.14     20.00
    7.5536     24.99     26.14    -29.37     20.00
    7.5638     25.08     26.15    -29.29     20.00
    7.5739     24.48     26.16    -29.90     20.00
    7.5841     25.97     26.17    -28.42     20.00
    7.5942     24.87     26.18    -29.53     20.00
    7.6044     24.24     26.19    -30.17     20.00
    7.6146     25.04     26.20    -29.39     20.00
    7.6247     24.95     26.21    -29.49     20.00
    7.6349     24.25     26.22    -30.20     20.00
    7.6451     24.63     26.24    -29.83     20.00
    7.6552     24.43     26.25    -30.04     20.00
    7.6654     24.28     26.26    -30.20     20.00
    7.6756     25.02     26.27    -29.47     20.00
    7.6857     24.82     26.28    -29.68     20.00
    7.6959     24.46     26.29    -30.05     20.00
    7.7061     24.72     26.30    -29.80     20.00
    7.7162     25.55     26.31    -28.98     20.00
    7.7264     24.27     26.32    -30.28     20.00
    7.7365     25.60     26.34    -28.96     20.00
    7.7467     24.95     26.35    -29.62     20.00
    7.7569     25.21     26.36    -29.37     20.00
    7.7670     25.04     26.37    -29.55     20.00
    7.7772     25.31     26.38    -29.29     20.00
    7.7874     24.64     26.39    -29.97     20.00
    7.7975     24.83     26.40    -29.80     20.00
    7.8077     25.73     26.42    -28.91     20.00
    7.8179     25.45     26.43    -29.20     20.00
    7.8280     24.49     26.44    -30.17     20.00
    7.8382     25.24     26.45    -29.43     20.00
    7.8484     24.96     26.46    -29.72     20.00
    7.8585     25.26     26.47    -29.43     20.00
    7.8687     25.69     26.48    -29.02     20.00
    7.8789     25.13     26.50    -29.59     20.00
    7.8890     24.63     26.51    -30.10     20.00
    7.8992     25.47     26.52    -29.27     20.00
    7.9093     25.97     26.53    -28.78     20.00
    7.9195     25.85     26.54    -28.92     20.00
    7.9297     25.84     26.56    -28.94     20.00
    7.9398     25.43     26.57    -29.36     20.00
    7.9500     25.23     26.58    -29.57     20.00
    7.9602     26.21     26.59    -28.60     20.00
    7.9703     25.26     26.60    -29.57     20.00
    7.9805     25.14     26.62    -29.70     20.00
    7.9907     26.83     26.63    -28.02     20.00
    8.0008     26.15     26.64    -28.71     20.00
    8.0110     25.86     26.65    -29.01     20.00
    8.0212     25.90     26.67    -28.99     20.00
    8.0313     26.79     26.68    -28.11     20.00
    8.0415     25.56     26.69    -29.35     20.00
    8.0516     25.83     26.70    -29.09     20.00
    8.0618     25.93     26.71    -29.01     20.00
    8.0720     26.23     26.73    -28.72     20.00
    8.0821     27.07     26.74    -27.89     20.00
    8.0923     25.65     26.75    -29.32     20.00
    8.1025     25.71     26.77    -29.28     20.00
    8.1126     26.55     26.78    -28.45     20.00
    8.1228     25.62     26.79    -29.39     20.00
    8.1330     26.27     26.80    -28.76     20.00
    8.1431     25.93     26.82    -29.11     20.00
    8.1533     26.11     26.83    -28.94     20.00
    8.1635     25.56     26.84    -29.50     20.00
    8.1736     25.95     26.85    -29.13     20.00
    8.1838     26.13     26.87    -28.96     20.00
    8.1940     26.67     26.88    -28.43     20.00
    8.2041     26.24     26.89    -28.88     20.00
    8.2143     26.70     26.91    -28.43     20.00
    8.2244     27.26     26.92    -27.88     20.00
    8.2346     26.81     26.93    -28.35     20.00
    8.2448     26.13     26.95    -29.04     20.00
    8.2549     26.85     26.96    -28.33     20.00
    8.2651     26.51     26.97    -28.69     20.00
    8.2753     25.79     26.99    -29.42     20.00
    8.2854     26.55     27.00    -28.67     20.00
    8.2956     26.26     27.01    -28.98     20.00
    8.3058     26.87     27.03    -28.38     20.00
    8.3159     25.85     27.04    -29.41     20.00
    8.3261     26.99     27.05    -28.29     20.00
    8.3363     26.71     27.07    -28.58     20.00
    8.3464     26.52     27.08    -28.78     20.00
    8.3566     27.10     27.10    -28.22     20.00
    8.3667     26.33     27.11    -29.00     20.00
    8.3769     26.35     27.12    -29.00     20.00
    8.3871     26.68     27.14    -28.68     20.00
    8.3972     26.37     27.15    -29.00     20.00
    8.4074     26.47     27.17    -28.92     20.00
    8.4176     27.10     27.18    -28.30     20.00
    8.4277     26.38     27.19    -29.04     20.00
    8.4379     26.83     27.21    -28.60     20.00
    8.4481     28.05     27.22    -27.39     20.00
    8.4582     26.23     27.24    -29.23     20.00
    8.4684     27.22     27.25    -28.25     20.00
    8.4786     27.45     27.27    -28.04     20.00
    8.4887     26.52     27.28    -28.98     20.00
    8.4989     27.06     27.29    -28.46     20.00
    8.5091     27.37     27.31    -28.16     20.00
    8.5192     26.76     27.32    -28.79     20.00
    8.5294     27.67     27.34    -27.89     20.00
    8.5395     27.58     27.35    -27.99     20.00
    8.5497     26.64     27.37    -28.95     20.00
    8.5599     27.57     27.38    -28.03     20.00
    8.5700     26.77     27.40    -28.85     20.00
    8.5802     27.02     27.41    -28.61     20.00
    8.5904     27.98     27.43    -27.67     20.00
    8.6005     27.67     27.44    -27.99     20.00
    8.6107     27.40     27.46    -28.28     20.00
    8.6209     27.88     27.47    -27.81     20.00
    8.6310     27.31     27.49    -28.40     20.00
    8.6412     27.05     27.50    -28.67     20.00
    8.6514     27.22     27.52    -28.52     20.00
    8.6615     27.54     27.53    -28.22     20.00
    8.6717     27.60     27.55    -28.17     20.00
    8.6818     28.15     27.56    -27.64     20.00
    8.6920     27.24     27.58    -28.56     20.00
    8.7022     27.63     27.60    -28.19     20.00
    8.7123     28.09     27.61    -27.74     20.00
    8.7225     27.59     27.63    -28.26     20.00
    8.7327     27.75     27.64    -28.11     20.00
    8.7428     27.10     27.66    -28.78     20.00
    8.7530     27.43     27.67    -28.47     20.00
    8.7632     28.12     27.69    -27.79     20.00
    8.7733     27.91     27.71    -28.02     20.00
    8.7835     28.43     27.72    -27.51     20.00
    8.7937     27.65     27.74    -28.31     20.00
    8.8038     27.91     27.75    -28.07     20.00
    8.8140     27.81     27.77    -28.18     20.00
    8.8242     27.69     27.79    -28.32     20.00
    8.8343     28.10     27.80    -27.93     20.00
    8.8445     29.26     27.82    -26.78     20.00
    8.8546     27.74     27.84    -28.32     20.00
    8.8648     28.12     27.85    -27.95     20.00
    8.8750     28.46     27.87    -27.63     20.00
    8.8851     26.89     27.89    -29.22     20.00
    8.8953     28.28     27.90    -27.84     20.00
    8.9055     28.25     27.92    -27.89     20.00
    8.9156     27.30     27.94    -28.86     20.00
    8.9258     28.38     27.95    -27.80     20.00
    8.9360     27.76     27.97    -28.43     20.00
    8.9461     27.63     27.99    -28.58     20.00
    8.9563     28.03     28.00    -28.20     20.00
    8.9665     28.03     28.02    -28.21     20.00
    8.9766     27.88     28.04    -28.38     20.00
    8.9868     28.47     28.06    -27.81     20.00
    8.9969     28.04     28.07    -28.26     20.00
    9.0071     28.46     28.09    -27.85     20.00
    9.0173     28.03     28.11    -28.30     20.00
    9.0274     28.57     28.13    -27.78     20.00
    9.0376     28.49     28.14    -27.88     20.00
    9.0478     29.70     28.16    -26.68     20.00
    9.0579     29.12     28.18    -27.28     20.00
    9.0681     27.35     28.20    -29.07     20.00
    9.0783     28.25     28.21    -28.19     20.00
    9.0884     28.95     28.23    -27.50     20.00
    9.0986     28.96     28.25    -27.51     20.00
    9.1088     28.86     28.27    -27.63     20.00
    9.1189     29.11     28.29    -27.40     20.00
    9.1291     28.80     28.30    -27.73     20.00
    9.1393     29.79     28.32    -26.76     20.00
    9.1494     28.92     28.34    -27.64     20.00
    9.1596     28.35     28.36    -28.23     20.00
    9.1697     29.52     28.38    -27.08     20.00
    9.1799     28.71     28.40    -27.91     20.00
    9.1901     28.02     28.42    -28.62     20.00
    9.2002     29.21     28.43    -27.45     20.00
    9.2104     28.91     28.45    -27.76     20.00
    9.2206     29.21     28.47    -27.48     20.00
    9.2307     30.04     28.49    -26.67     20.00
    9.2409     29.27     28.51    -27.46     20.00
    9.2511     28.39     28.53    -28.36     20.00
    9.2612     29.15     28.55    -27.62     20.00
    9.2714     29.73     28.57    -27.06     20.00
    9.2816     28.58     28.59    -28.23     20.00
    9.2917     28.97     28.61    -27.86     20.00
    9.3019     29.65     28.63    -27.20     20.00
    9.3120     28.69     28.64    -28.18     20.00
    9.3222     29.46     28.66    -27.43     20.00
    9.3324     29.43     28.68    -27.48     20.00
    9.3425     29.21     28.70    -27.72     20.00
    9.3527     28.66     28.72    -28.29     20.00
    9.3629     29.82     28.74    -27.15     20.00
    9.3730     29.71     28.76    -27.28     20.00
    9.3832     29.89     28.78    -27.12     20.00
    9.3934     29.50     28.80    -27.53     20.00
    9.4035     29.34     28.82    -27.71     20.00
    9.4137     30.27     28.84    -26.80     20.00
    9.4239     30.27     28.86    -26.82     20.00
    9.4340     29.21     28.88    -27.90     20.00
    9.4442     29.13     28.91    -28.00     20.00
    9.4544     29.55     28.93    -27.60     20.00
    9.4645     29.80     28.95    -27.37     20.00
    9.4747     29.27     28.97    -27.92     20.00
    9.4848     29.71     28.99    -27.50     20.00
    9.4950     29.03     29.01    -28.20     20.00
    9.5052     29.59     29.03    -27.66     20.00
    9.5153     29.71     29.05    -27.56     20.00
    9.5255     29.78     29.07    -27.51     20.00
    9.5357     29.70     29.09    -27.62     20.00
    9.5458     29.23     29.11    -28.11     20.00
    9.5560     29.35     29.14    -28.01     20.00
    9.5662     30.04     29.16    -27.34     20.00
    9.5763     29.64     29.18    -27.76     20.00
    9.5865     29.22     29.20    -28.20     20.00
    9.5967     30.45     29.22    -26.99     20.00
    9.6068     29.98     29.24    -27.49     20.00
    9.6170     29.45     29.27    -28.04     20.00
    9.6271     29.88     29.29    -27.63     20.00
    9.6373     30.20     29.31    -27.33     20.00
    9.6475     29.82     29.33    -27.73     20.00
    9.6576     29.82     29.35    -27.76     20.00
    9.6678     29.85     29.38    -27.75     20.00
    9.6780     30.34     29.40    -27.28     20.00
    9.6881     30.43     29.42    -27.21     20.00
    9.6983     30.23     29.44    -27.44     20.00
    9.7085     30.19     29.47    -27.50     20.00
    9.7186     30.23     29.49    -27.48     20.00
    9.7288     30.12     29.51    -27.62     20.00
    9.7390     30.22     29.54    -27.54     20.00
    9.7491     30.49     29.56    -27.29     20.00
    9.7593     30.60     29.58    -27.20     20.00
    9.7694     30.87     29.61    -26.96     20.00
