 => TITLE: 
 => Data file name: C:\Users\stefano\Nextcloud2\projects\programming\python\xrd-winplotr\folder\G110\G110--5-40-0.01-1000ms.xy
 => Instrm        :    1
 => Lambda(1&2)   :   1.54060  1.54060
 => Numb.of.points:      2915
 => Numb.of.peaks :         8
    2Theta     Yobs     Ycalc  Yobs-Ycal    Backg    Bragg     Posr  Intensity   FWHM    Eta
    6.2627     23.32     23.72    -28.62     18.12   18.6700     -3.23     170.43  0.7964  0.5000
    6.2729     23.79     23.73    -28.16     18.12   20.4743     -3.23     110.59  1.5705  0.5000
    6.2830     23.43     23.74    -28.53     18.12   22.5101     -3.23     133.49  1.1256  0.5000
    6.2932     23.14     23.75    -28.83     18.11   28.5505     -3.23      46.79  1.0969  0.5000
    6.3034     22.57     23.76    -29.41     18.11   30.0647     -3.23      24.35  2.1575  0.5000
    6.3135     23.15     23.77    -28.84     18.11   33.4325     -3.23      40.01  3.1147  0.5000
    6.3237     22.66     23.78    -29.34     18.11   17.4812     -3.23      90.82  2.1147  0.5000
    6.3338     23.16     23.79    -28.85     18.11   20.3269     -3.23     989.19 12.5037  0.5000
    6.3440     23.97     23.80    -28.05     18.11
    6.3542     23.28     23.81    -28.75     18.11
    6.3643     22.89     23.82    -29.15     18.11
    6.3745     23.23     23.83    -28.82     18.10
    6.3847     22.90     23.84    -29.16     18.10
    6.3948     22.51     23.85    -29.56     18.10
    6.4050     23.77     23.86    -28.31     18.10
    6.4152     23.41     23.87    -28.68     18.10
    6.4253     23.03     23.88    -29.07     18.10
    6.4355     23.00     23.89    -29.11     18.10
    6.4457     23.35     23.90    -28.78     18.10
    6.4558     23.45     23.91    -28.69     18.09
    6.4660     23.12     23.92    -29.03     18.09
    6.4762     22.98     23.93    -29.18     18.09
    6.4863     23.38     23.95    -28.79     18.09
    6.4965     23.34     23.96    -28.84     18.09
    6.5066     23.75     23.97    -28.44     18.09
    6.5168     23.45     23.98    -28.75     18.09
    6.5270     23.17     23.99    -29.04     18.08
    6.5371     23.08     24.00    -29.14     18.08
    6.5473     22.80     24.01    -29.43     18.08
    6.5575     23.36     24.02    -28.88     18.08
    6.5676     21.76     24.03    -30.49     18.08
    6.5778     23.21     24.04    -29.06     18.08
    6.5880     22.71     24.05    -29.57     18.08
    6.5981     23.18     24.07    -29.11     18.08
    6.6083     22.59     24.08    -29.71     18.07
    6.6185     23.41     24.09    -28.90     18.07
    6.6286     23.01     24.10    -29.31     18.07
    6.6388     23.46     24.11    -28.87     18.07
    6.6489     23.67     24.12    -28.67     18.07
    6.6591     23.79     24.13    -28.56     18.07
    6.6693     23.27     24.14    -29.10     18.07
    6.6794     23.60     24.15    -28.78     18.07
    6.6896     22.80     24.17    -29.59     18.06
    6.6998     23.59     24.18    -28.81     18.06
    6.7099     23.59     24.19    -28.82     18.06
    6.7201     22.59     24.20    -29.83     18.06
    6.7303     23.66     24.21    -28.77     18.06
    6.7404     22.66     24.22    -29.79     18.06
    6.7506     22.47     24.24    -29.99     18.06
    6.7608     23.46     24.25    -29.01     18.06
    6.7709     23.60     24.26    -28.88     18.05
    6.7811     23.57     24.27    -28.92     18.05
    6.7913     22.84     24.28    -29.66     18.05
    6.8014     23.08     24.29    -29.44     18.05
    6.8116     23.40     24.31    -29.13     18.05
    6.8217     23.15     24.32    -29.39     18.05
    6.8319     23.43     24.33    -29.12     18.05
    6.8421     23.67     24.34    -28.89     18.05
    6.8522     22.57     24.35    -30.01     18.04
    6.8624     24.00     24.37    -28.59     18.04
    6.8726     22.99     24.38    -29.61     18.04
    6.8827     23.12     24.39    -29.49     18.04
    6.8929     23.90     24.40    -28.72     18.04
    6.9031     22.65     24.42    -29.99     18.04
    6.9132     24.29     24.43    -28.36     18.04
    6.9234     24.07     24.44    -28.59     18.04
    6.9336     22.24     24.45    -30.43     18.03
    6.9437     23.03     24.46    -29.66     18.03
    6.9539     23.30     24.48    -29.40     18.03
    6.9640     23.65     24.49    -29.06     18.03
    6.9742     23.94     24.50    -28.78     18.03
    6.9844     23.76     24.51    -28.98     18.03
    6.9945     23.49     24.53    -29.26     18.03
    7.0047     23.61     24.54    -29.15     18.02
    7.0149     23.13     24.55    -29.64     18.02
    7.0250     23.76     24.57    -29.03     18.02
    7.0352     23.93     24.58    -28.87     18.02
    7.0454     24.56     24.59    -28.25     18.02
    7.0555     23.90     24.60    -28.93     18.02
    7.0657     23.99     24.62    -28.85     18.02
    7.0759     23.80     24.63    -29.05     18.02
    7.0860     23.62     24.64    -29.24     18.01
    7.0962     24.05     24.66    -28.83     18.01
    7.1064     23.28     24.67    -29.61     18.01
    7.1165     23.46     24.68    -29.44     18.01
    7.1267     23.81     24.69    -29.11     18.01
    7.1368     23.83     24.71    -29.10     18.01
    7.1470     23.75     24.72    -29.19     18.01
    7.1572     24.29     24.73    -28.67     18.01
    7.1673     23.67     24.75    -29.30     18.00
    7.1775     23.60     24.76    -29.38     18.00
    7.1877     23.73     24.77    -29.27     18.00
    7.1978     23.43     24.79    -29.58     18.00
    7.2080     23.58     24.80    -29.44     18.00
    7.2182     24.10     24.82    -28.94     18.00
    7.2283     24.15     24.83    -28.90     18.00
    7.2385     23.29     24.84    -29.77     18.00
    7.2487     24.35     24.86    -28.73     17.99
    7.2588     23.85     24.87    -29.24     17.99
    7.2690     23.58     24.88    -29.53     17.99
    7.2791     24.23     24.90    -28.89     17.99
    7.2893     23.85     24.91    -29.28     17.99
    7.2995     24.32     24.93    -28.83     17.99
    7.3096     24.64     24.94    -28.52     17.99
    7.3198     24.09     24.95    -29.09     17.99
    7.3300     23.55     24.97    -29.64     17.98
    7.3401     24.98     24.98    -28.22     17.98
    7.3503     24.16     25.00    -29.06     17.98
    7.3605     24.53     25.01    -28.70     17.98
    7.3706     23.41     25.02    -29.84     17.98
    7.3808     24.31     25.04    -28.95     17.98
    7.3910     24.02     25.05    -29.26     17.98
    7.4011     23.81     25.07    -29.48     17.98
    7.4113     24.54     25.08    -28.76     17.97
    7.4215     24.65     25.10    -28.67     17.97
    7.4316     24.94     25.11    -28.39     17.97
    7.4418     24.54     25.13    -28.81     17.97
    7.4519     24.26     25.14    -29.10     17.97
    7.4621     24.75     25.16    -28.63     17.97
    7.4723     24.30     25.17    -29.09     17.97
    7.4824     24.60     25.18    -28.81     17.96
    7.4926     24.66     25.20    -28.76     17.96
    7.5028     25.08     25.21    -28.36     17.96
    7.5129     24.99     25.23    -28.46     17.96
    7.5231     24.67     25.24    -28.80     17.96
    7.5333     24.32     25.26    -29.16     17.96
    7.5434     24.21     25.27    -29.29     17.96
    7.5536     24.99     25.29    -28.52     17.96
    7.5638     25.08     25.30    -28.45     17.95
    7.5739     24.48     25.32    -29.06     17.95
    7.5841     25.97     25.34    -27.59     17.95
    7.5942     24.87     25.35    -28.70     17.95
    7.6044     24.24     25.37    -29.35     17.95
    7.6146     25.04     25.38    -28.56     17.95
    7.6247     24.95     25.40    -28.67     17.95
    7.6349     24.25     25.41    -29.38     17.95
    7.6451     24.63     25.43    -29.02     17.94
    7.6552     24.43     25.44    -29.24     17.94
    7.6654     24.28     25.46    -29.40     17.94
    7.6756     25.02     25.47    -28.68     17.94
    7.6857     24.82     25.49    -28.89     17.94
    7.6959     24.46     25.51    -29.27     17.94
    7.7061     24.72     25.52    -29.02     17.94
    7.7162     25.55     25.54    -28.21     17.94
    7.7264     24.27     25.55    -29.51     17.93
    7.7365     25.60     25.57    -28.19     17.93
    7.7467     24.95     25.59    -28.86     17.93
    7.7569     25.21     25.60    -28.61     17.93
    7.7670     25.04     25.62    -28.80     17.93
    7.7772     25.31     25.63    -28.55     17.93
    7.7874     24.64     25.65    -29.23     17.93
    7.7975     24.83     25.67    -29.06     17.93
    7.8077     25.73     25.68    -28.18     17.92
    7.8179     25.45     25.70    -28.47     17.92
    7.8280     24.49     25.72    -29.45     17.92
    7.8382     25.24     25.73    -28.72     17.92
    7.8484     24.96     25.75    -29.01     17.92
    7.8585     25.26     25.77    -28.73     17.92
    7.8687     25.69     25.78    -28.32     17.92
    7.8789     25.13     25.80    -28.89     17.91
    7.8890     24.63     25.82    -29.41     17.91
    7.8992     25.47     25.83    -28.59     17.91
    7.9093     25.97     25.85    -28.10     17.91
    7.9195     25.85     25.87    -28.24     17.91
    7.9297     25.84     25.88    -28.27     17.91
    7.9398     25.43     25.90    -28.69     17.91
    7.9500     25.23     25.92    -28.91     17.91
    7.9602     26.21     25.94    -27.95     17.90
    7.9703     25.26     25.95    -28.92     17.90
    7.9805     25.14     25.97    -29.05     17.90
    7.9907     26.83     25.99    -27.38     17.90
    8.0008     26.15     26.01    -28.08     17.90
    8.0110     25.86     26.02    -28.38     17.90
    8.0212     25.90     26.04    -28.36     17.90
    8.0313     26.79     26.06    -27.49     17.90
    8.0415     25.56     26.08    -28.74     17.89
    8.0516     25.83     26.09    -28.49     17.89
    8.0618     25.93     26.11    -28.40     17.89
    8.0720     26.23     26.13    -28.12     17.89
    8.0821     27.07     26.15    -27.30     17.89
    8.0923     25.65     26.16    -28.74     17.89
    8.1025     25.71     26.18    -28.69     17.89
    8.1126     26.55     26.20    -27.87     17.89
    8.1228     25.62     26.22    -28.82     17.88
    8.1330     26.27     26.24    -28.19     17.88
    8.1431     25.93     26.25    -28.55     17.88
    8.1533     26.11     26.27    -28.38     17.88
    8.1635     25.56     26.29    -28.95     17.88
    8.1736     25.95     26.31    -28.58     17.88
    8.1838     26.13     26.33    -28.42     17.88
    8.1940     26.67     26.35    -27.90     17.88
    8.2041     26.24     26.36    -28.35     17.87
    8.2143     26.70     26.38    -27.91     17.87
    8.2244     27.26     26.40    -27.36     17.87
    8.2346     26.81     26.42    -27.83     17.87
    8.2448     26.13     26.44    -28.53     17.87
    8.2549     26.85     26.46    -27.83     17.87
    8.2651     26.51     26.48    -28.19     17.87
    8.2753     25.79     26.50    -28.93     17.87
    8.2854     26.55     26.52    -28.19     17.86
    8.2956     26.26     26.53    -28.50     17.86
    8.3058     26.87     26.55    -27.91     17.86
    8.3159     25.85     26.57    -28.94     17.86
    8.3261     26.99     26.59    -27.82     17.86
    8.3363     26.71     26.61    -28.12     17.86
    8.3464     26.52     26.63    -28.33     17.86
    8.3566     27.10     26.65    -27.77     17.85
    8.3667     26.33     26.67    -28.56     17.85
    8.3769     26.35     26.69    -28.56     17.85
    8.3871     26.68     26.71    -28.25     17.85
    8.3972     26.37     26.73    -28.58     17.85
    8.4074     26.47     26.75    -28.50     17.85
    8.4176     27.10     26.77    -27.89     17.85
    8.4277     26.38     26.79    -28.63     17.85
    8.4379     26.83     26.81    -28.20     17.84
    8.4481     28.05     26.83    -27.00     17.84
    8.4582     26.23     26.85    -28.84     17.84
    8.4684     27.22     26.87    -27.87     17.84
    8.4786     27.45     26.89    -27.66     17.84
    8.4887     26.52     26.91    -28.61     17.84
    8.4989     27.06     26.93    -28.09     17.84
    8.5091     27.37     26.95    -27.80     17.84
    8.5192     26.76     26.97    -28.43     17.83
    8.5294     27.67     26.99    -27.54     17.83
    8.5395     27.58     27.01    -27.65     17.83
    8.5497     26.64     27.03    -28.61     17.83
    8.5599     27.57     27.05    -27.70     17.83
    8.5700     26.77     27.07    -28.52     17.83
    8.5802     27.02     27.09    -28.29     17.83
    8.5904     27.98     27.11    -27.35     17.83
    8.6005     27.67     27.13    -27.69     17.82
    8.6107     27.40     27.15    -27.98     17.82
    8.6209     27.88     27.18    -27.52     17.82
    8.6310     27.31     27.20    -28.11     17.82
    8.6412     27.05     27.22    -28.39     17.82
    8.6514     27.22     27.24    -28.24     17.82
    8.6615     27.54     27.26    -27.94     17.82
    8.6717     27.60     27.28    -27.90     17.82
    8.6818     28.15     27.30    -27.37     17.81
    8.6920     27.24     27.32    -28.31     17.81
    8.7022     27.63     27.35    -27.94     17.81
    8.7123     28.09     27.37    -27.50     17.81
    8.7225     27.59     27.39    -28.02     17.81
    8.7327     27.75     27.41    -27.88     17.81
    8.7428     27.10     27.43    -28.55     17.81
    8.7530     27.43     27.45    -28.25     17.81
    8.7632     28.12     27.48    -27.58     17.80
    8.7733     27.91     27.50    -27.81     17.80
    8.7835     28.43     27.52    -27.31     17.80
    8.7937     27.65     27.54    -28.11     17.80
    8.8038     27.91     27.56    -27.88     17.80
    8.8140     27.81     27.59    -28.00     17.80
    8.8242     27.69     27.61    -28.14     17.80
    8.8343     28.10     27.63    -27.75     17.79
    8.8445     29.26     27.65    -26.62     17.79
    8.8546     27.74     27.68    -28.16     17.79
    8.8648     28.12     27.70    -27.80     17.79
    8.8750     28.46     27.72    -27.48     17.79
    8.8851     26.89     27.74    -29.08     17.79
    8.8953     28.28     27.77    -27.71     17.79
    8.9055     28.25     27.79    -27.76     17.79
    8.9156     27.30     27.81    -28.73     17.78
    8.9258     28.38     27.83    -27.68     17.78
    8.9360     27.76     27.86    -28.32     17.78
    8.9461     27.63     27.88    -28.47     17.78
    8.9563     28.03     27.90    -28.10     17.78
    8.9665     28.03     27.93    -28.12     17.78
    8.9766     27.88     27.95    -28.29     17.78
    8.9868     28.47     27.97    -27.73     17.78
    8.9969     28.04     28.00    -28.18     17.77
    9.0071     28.46     28.02    -27.78     17.77
    9.0173     28.03     28.04    -28.24     17.77
    9.0274     28.57     28.07    -27.72     17.77
    9.0376     28.49     28.09    -27.82     17.77
    9.0478     29.70     28.12    -26.64     17.77
    9.0579     29.12     28.14    -27.24     17.77
    9.0681     27.35     28.16    -29.04     17.77
    9.0783     28.25     28.19    -28.16     17.76
    9.0884     28.95     28.21    -27.48     17.76
    9.0986     28.96     28.24    -27.50     17.76
    9.1088     28.86     28.26    -27.62     17.76
    9.1189     29.11     28.28    -27.40     17.76
    9.1291     28.80     28.31    -27.73     17.76
    9.1393     29.79     28.33    -26.76     17.76
    9.1494     28.92     28.36    -27.66     17.76
    9.1596     28.35     28.38    -28.25     17.75
    9.1697     29.52     28.41    -27.11     17.75
    9.1799     28.71     28.43    -27.94     17.75
    9.1901     28.02     28.46    -28.66     17.75
    9.2002     29.21     28.48    -27.49     17.75
    9.2104     28.91     28.50    -27.82     17.75
    9.2206     29.21     28.53    -27.54     17.75
    9.2307     30.04     28.55    -26.74     17.74
    9.2409     29.27     28.58    -27.53     17.74
    9.2511     28.39     28.60    -28.44     17.74
    9.2612     29.15     28.63    -27.70     17.74
    9.2714     29.73     28.66    -27.15     17.74
    9.2816     28.58     28.68    -28.32     17.74
    9.2917     28.97     28.71    -27.96     17.74
    9.3019     29.65     28.73    -27.30     17.74
    9.3120     28.69     28.76    -28.29     17.73
    9.3222     29.46     28.78    -27.54     17.73
    9.3324     29.43     28.81    -27.60     17.73
    9.3425     29.21     28.83    -27.85     17.73
    9.3527     28.66     28.86    -28.42     17.73
    9.3629     29.82     28.89    -27.29     17.73
    9.3730     29.71     28.91    -27.42     17.73
    9.3832     29.89     28.94    -27.27     17.73
    9.3934     29.50     28.96    -27.69     17.72
    9.4035     29.34     28.99    -27.87     17.72
    9.4137     30.27     29.02    -26.97     17.72
    9.4239     30.27     29.04    -27.00     17.72
    9.4340     29.21     29.07    -28.08     17.72
    9.4442     29.13     29.10    -28.19     17.72
    9.4544     29.55     29.12    -27.79     17.72
    9.4645     29.80     29.15    -27.57     17.72
    9.4747     29.27     29.18    -28.13     17.71
    9.4848     29.71     29.20    -27.71     17.71
    9.4950     29.03     29.23    -28.42     17.71
    9.5052     29.59     29.26    -27.89     17.71
    9.5153     29.71     29.28    -27.80     17.71
    9.5255     29.78     29.31    -27.75     17.71
    9.5357     29.70     29.34    -27.86     17.71
    9.5458     29.23     29.37    -28.36     17.71
    9.5560     29.35     29.39    -28.26     17.70
    9.5662     30.04     29.42    -27.60     17.70
    9.5763     29.64     29.45    -28.03     17.70
    9.5865     29.22     29.48    -28.48     17.70
    9.5967     30.45     29.50    -27.28     17.70
    9.6068     29.98     29.53    -27.77     17.70
    9.6170     29.45     29.56    -28.33     17.70
    9.6271     29.88     29.59    -27.93     17.70
    9.6373     30.20     29.61    -27.64     17.69
    9.6475     29.82     29.64    -28.04     17.69
    9.6576     29.82     29.67    -28.07     17.69
    9.6678     29.85     29.70    -28.07     17.69
    9.6780     30.34     29.73    -27.61     17.69
    9.6881     30.43     29.75    -27.55     17.69
    9.6983     30.23     29.78    -27.78     17.69
    9.7085     30.19     29.81    -27.84     17.68
    9.7186     30.23     29.84    -27.83     17.68
    9.7288     30.12     29.87    -27.97     17.68
    9.7390     30.22     29.90    -27.90     17.68
    9.7491     30.49     29.93    -27.66     17.68
    9.7593     30.60     29.96    -27.58     17.68
    9.7694     30.87     29.98    -27.34     17.68
    9.7796     30.07     30.01    -28.17     17.68
    9.7898     29.85     30.04    -28.41     17.67
    9.7999     31.41     30.07    -26.88     17.67
    9.8101     30.90     30.10    -27.42     17.67
    9.8203     30.88     30.13    -27.47     17.67
    9.8304     29.56     30.16    -28.82     17.67
    9.8406     30.20     30.19    -28.21     17.67
    9.8508     31.06     30.22    -27.38     17.67
    9.8609     31.07     30.25    -27.40     17.67
    9.8711     30.26     30.28    -28.24     17.66
    9.8813     31.27     30.31    -27.26     17.66
    9.8914     30.98     30.34    -27.58     17.66
    9.9016     30.09     30.37    -28.50     17.66
    9.9118     30.51     30.40    -28.11     17.66
    9.9219     29.86     30.43    -28.79     17.66
    9.9321     31.88     30.46    -26.80     17.66
    9.9422     30.56     30.49    -28.15     17.66
    9.9524     30.88     30.52    -27.86     17.65
    9.9626     30.95     30.55    -27.82     17.65
    9.9727     32.48     30.58    -26.32     17.65
    9.9829     31.09     30.61    -27.74     17.65
    9.9931     31.24     30.64    -27.62     17.65
   10.0032     30.30     30.67    -28.59     17.65
   10.0134     31.18     30.70    -27.74     17.65
