 => TITLE: 
 => Data file name: C:\Users\stefano\Nextcloud2\uni\master-thesis\XRD\data\G307\G307--5-40-0.01-1000ms.xy
 => Instrm        :    1
 => Lambda(1&2)   :   1.54060  1.54060
 => Numb.of.points:      2951
 => Numb.of.peaks :         7
    2Theta     Yobs     Ycalc  Yobs-Ycal    Backg    Bragg     Posr  Intensity   FWHM    Eta
    6.0086     24.06     24.99    -21.70     20.00   18.5592      0.90     123.32  0.8178  0.6145
    6.0187     23.84     25.00    -21.93     20.00   20.4829      0.90       9.57  0.5401  0.6145
    6.0289     24.98     25.00    -20.79     20.00   22.4235      0.90      73.46  1.0470  0.6145
    6.0391     24.17     25.01    -21.61     20.00   28.3881      0.90      63.83  1.9885  0.6145
    6.0492     23.44     25.02    -22.35     20.00   30.0668      0.90      30.07  2.9504  0.6145
    6.0594     24.16     25.03    -21.64     20.00   33.4085      0.90      19.95  2.9504  0.6145
    6.0696     24.27     25.03    -21.53     20.00   19.5334      0.90    1194.49  8.6469  0.5874
    6.0797     24.07     25.04    -21.74     20.00
    6.0899     23.75     25.05    -22.07     20.00
    6.1001     22.95     25.06    -22.88     20.00
    6.1102     24.10     25.06    -21.73     20.00
    6.1204     23.40     25.07    -22.44     20.00
    6.1306     23.47     25.08    -22.38     20.00
    6.1407     24.14     25.09    -21.72     20.00
    6.1509     23.15     25.09    -22.71     20.00
    6.1611     23.56     25.10    -22.31     20.00
    6.1712     23.35     25.11    -22.53     20.00
    6.1814     24.32     25.12    -21.57     20.00
    6.1915     23.98     25.13    -21.92     20.00
    6.2017     23.91     25.13    -21.99     20.00
    6.2119     23.66     25.14    -22.25     20.00
    6.2220     24.14     25.15    -21.78     20.00
    6.2322     23.69     25.16    -22.24     20.00
    6.2424     22.83     25.16    -23.10     20.00
    6.2525     22.77     25.17    -23.17     20.00
    6.2627     24.59     25.18    -21.36     20.00
    6.2729     23.29     25.19    -22.67     20.00
    6.2830     22.91     25.20    -23.06     20.00
    6.2932     23.85     25.20    -22.12     20.00
    6.3034     23.29     25.21    -22.69     20.00
    6.3135     23.91     25.22    -22.08     20.00
    6.3237     23.38     25.23    -22.62     20.00
    6.3338     22.57     25.23    -23.43     20.00
    6.3440     23.22     25.24    -22.79     20.00
    6.3542     23.12     25.25    -22.90     20.00
    6.3643     23.34     25.26    -22.69     20.00
    6.3745     22.91     25.27    -23.13     20.00
    6.3847     23.21     25.28    -22.84     20.00
    6.3948     23.62     25.28    -22.43     20.00
    6.4050     22.73     25.29    -23.33     20.00
    6.4152     23.36     25.30    -22.71     20.00
    6.4253     23.81     25.31    -22.27     20.00
    6.4355     23.11     25.32    -22.98     20.00
    6.4457     23.01     25.32    -23.08     20.00
    6.4558     23.82     25.33    -22.28     20.00
    6.4660     23.65     25.34    -22.46     20.00
    6.4762     23.46     25.35    -22.66     20.00
    6.4863     23.95     25.36    -22.18     20.00
    6.4965     23.23     25.37    -22.91     20.00
    6.5066     23.34     25.37    -22.80     20.00
    6.5168     23.77     25.38    -22.38     20.00
    6.5270     22.82     25.39    -23.34     20.00
    6.5371     23.98     25.40    -22.19     20.00
    6.5473     23.84     25.41    -22.34     20.00
    6.5575     23.08     25.42    -23.11     20.00
    6.5676     23.36     25.42    -22.83     20.00
    6.5778     23.56     25.43    -22.64     20.00
    6.5880     22.88     25.44    -23.33     20.00
    6.5981     22.91     25.45    -23.31     20.00
    6.6083     23.43     25.46    -22.80     20.00
    6.6185     24.28     25.47    -21.96     20.00
    6.6286     24.14     25.48    -22.11     20.00
    6.6388     23.79     25.48    -22.46     20.00
    6.6489     22.89     25.49    -23.37     20.00
    6.6591     23.15     25.50    -23.12     20.00
    6.6693     23.58     25.51    -22.70     20.00
    6.6794     23.94     25.52    -22.35     20.00
    6.6896     23.20     25.53    -23.10     20.00
    6.6998     23.52     25.54    -22.79     20.00
    6.7099     23.79     25.55    -22.53     20.00
    6.7201     23.58     25.56    -22.75     20.00
    6.7303     23.76     25.56    -22.57     20.00
    6.7404     23.66     25.57    -22.68     20.00
    6.7506     23.52     25.58    -22.83     20.00
    6.7608     23.51     25.59    -22.85     20.00
    6.7709     24.15     25.60    -22.22     20.00
    6.7811     23.87     25.61    -22.51     20.00
    6.7913     23.32     25.62    -23.07     20.00
    6.8014     24.26     25.63    -22.14     20.00
    6.8116     24.26     25.64    -22.15     20.00
    6.8217     23.29     25.65    -23.13     20.00
    6.8319     23.65     25.65    -22.77     20.00
    6.8421     23.65     25.66    -22.78     20.00
    6.8522     23.88     25.67    -22.56     20.00
    6.8624     24.22     25.68    -22.23     20.00
    6.8726     25.07     25.69    -21.39     20.00
    6.8827     23.89     25.70    -22.58     20.00
    6.8929     23.68     25.71    -22.80     20.00
    6.9031     23.55     25.72    -22.94     20.00
    6.9132     24.71     25.73    -21.79     20.00
    6.9234     23.87     25.74    -22.64     20.00
    6.9336     23.92     25.75    -22.60     20.00
    6.9437     24.67     25.76    -21.86     20.00
    6.9539     23.09     25.77    -23.45     20.00
    6.9640     24.85     25.78    -21.70     20.00
    6.9742     24.31     25.79    -22.25     20.00
    6.9844     23.59     25.80    -22.98     20.00
    6.9945     23.85     25.81    -22.73     20.00
    7.0047     24.54     25.82    -22.05     20.00
    7.0149     23.62     25.83    -22.98     20.00
    7.0250     23.75     25.83    -22.85     20.00
    7.0352     23.95     25.84    -22.66     20.00
    7.0454     24.15     25.85    -22.47     20.00
    7.0555     24.39     25.86    -22.24     20.00
    7.0657     23.85     25.87    -22.79     20.00
    7.0759     24.30     25.88    -22.35     20.00
    7.0860     23.91     25.89    -22.75     20.00
    7.0962     23.71     25.90    -22.96     20.00
    7.1064     24.75     25.91    -21.93     20.00
    7.1165     24.46     25.92    -22.23     20.00
    7.1267     23.88     25.93    -22.82     20.00
    7.1368     25.13     25.94    -21.58     20.00
    7.1470     24.25     25.95    -22.47     20.00
    7.1572     25.01     25.96    -21.72     20.00
    7.1673     24.60     25.97    -22.14     20.00
    7.1775     24.25     25.98    -22.50     20.00
    7.1877     24.46     25.99    -22.30     20.00
    7.1978     24.21     26.00    -22.56     20.00
    7.2080     25.01     26.02    -21.78     20.00
    7.2182     24.48     26.03    -22.32     20.00
    7.2283     24.31     26.04    -22.50     20.00
    7.2385     24.73     26.05    -22.09     20.00
    7.2487     25.23     26.06    -21.60     20.00
    7.2588     25.02     26.07    -21.82     20.00
    7.2690     23.92     26.08    -22.93     20.00
    7.2791     24.34     26.09    -22.52     20.00
    7.2893     25.06     26.10    -21.81     20.00
    7.2995     24.96     26.11    -21.92     20.00
    7.3096     25.01     26.12    -21.88     20.00
    7.3198     24.88     26.13    -22.02     20.00
    7.3300     25.08     26.14    -21.83     20.00
    7.3401     24.37     26.15    -22.55     20.00
    7.3503     25.32     26.16    -21.61     20.00
    7.3605     25.22     26.17    -21.72     20.00
    7.3706     24.52     26.18    -22.43     20.00
    7.3808     25.30     26.20    -21.67     20.00
    7.3910     24.76     26.21    -22.22     20.00
    7.4011     24.79     26.22    -22.20     20.00
    7.4113     25.68     26.23    -21.32     20.00
    7.4215     25.55     26.24    -21.46     20.00
    7.4316     25.49     26.25    -21.53     20.00
    7.4418     25.11     26.26    -21.92     20.00
    7.4519     24.95     26.27    -22.09     20.00
    7.4621     25.21     26.28    -21.84     20.00
    7.4723     25.42     26.30    -21.65     20.00
    7.4824     24.87     26.31    -22.21     20.00
    7.4926     25.28     26.32    -21.81     20.00
    7.5028     25.74     26.33    -21.36     20.00
    7.5129     25.20     26.34    -21.91     20.00
    7.5231     24.66     26.35    -22.46     20.00
    7.5333     24.97     26.36    -22.16     20.00
    7.5434     24.60     26.38    -22.55     20.00
    7.5536     25.00     26.39    -22.16     20.00
    7.5638     26.29     26.40    -20.88     20.00
    7.5739     25.12     26.41    -22.06     20.00
    7.5841     25.28     26.42    -21.91     20.00
    7.5942     26.01     26.43    -21.19     20.00
    7.6044     25.51     26.44    -21.70     20.00
    7.6146     25.77     26.46    -21.46     20.00
    7.6247     25.30     26.47    -21.94     20.00
    7.6349     25.32     26.48    -21.93     20.00
    7.6451     26.30     26.49    -20.96     20.00
    7.6552     26.04     26.50    -21.23     20.00
    7.6654     25.95     26.52    -21.34     20.00
    7.6756     25.77     26.53    -21.53     20.00
    7.6857     25.63     26.54    -21.68     20.00
    7.6959     26.20     26.55    -21.12     20.00
    7.7061     26.60     26.56    -20.73     20.00
    7.7162     25.72     26.58    -21.63     20.00
    7.7264     24.84     26.59    -22.52     20.00
    7.7365     25.35     26.60    -22.02     20.00
    7.7467     25.71     26.61    -21.67     20.00
    7.7569     25.80     26.63    -21.60     20.00
    7.7670     25.41     26.64    -22.00     20.00
    7.7772     25.51     26.65    -21.91     20.00
    7.7874     25.59     26.66    -21.84     20.00
    7.7975     25.70     26.68    -21.75     20.00
    7.8077     26.24     26.69    -21.22     20.00
    7.8179     25.89     26.70    -21.58     20.00
    7.8280     26.37     26.71    -21.11     20.00
    7.8382     25.85     26.73    -21.65     20.00
    7.8484     24.65     26.74    -22.86     20.00
    7.8585     26.13     26.75    -21.39     20.00
    7.8687     26.73     26.76    -20.80     20.00
    7.8789     25.62     26.78    -21.93     20.00
    7.8890     25.33     26.79    -22.23     20.00
    7.8992     27.06     26.80    -20.51     20.00
    7.9093     25.61     26.82    -21.98     20.00
    7.9195     26.77     26.83    -20.83     20.00
    7.9297     26.35     26.84    -21.26     20.00
    7.9398     25.68     26.86    -21.95     20.00
    7.9500     26.93     26.87    -20.71     20.00
    7.9602     26.62     26.88    -21.03     20.00
    7.9703     27.41     26.90    -20.26     20.00
    7.9805     26.81     26.91    -20.87     20.00
    7.9907     26.51     26.92    -21.18     20.00
    8.0008     26.39     26.94    -21.32     20.00
    8.0110     26.56     26.95    -21.16     20.00
    8.0212     27.21     26.96    -20.52     20.00
    8.0313     26.91     26.98    -20.84     20.00
    8.0415     27.37     26.99    -20.39     20.00
    8.0516     26.39     27.00    -21.38     20.00
    8.0618     26.13     27.02    -21.66     20.00
    8.0720     26.55     27.03    -21.25     20.00
    8.0821     26.59     27.04    -21.22     20.00
    8.0923     26.24     27.06    -21.59     20.00
    8.1025     27.00     27.07    -20.84     20.00
    8.1126     27.30     27.09    -20.56     20.00
    8.1228     26.94     27.10    -20.93     20.00
    8.1330     27.64     27.11    -20.25     20.00
    8.1431     27.38     27.13    -20.52     20.00
    8.1533     26.71     27.14    -21.20     20.00
    8.1635     26.91     27.16    -21.02     20.00
    8.1736     27.51     27.17    -20.43     20.00
    8.1838     27.26     27.19    -20.70     20.00
    8.1940     27.29     27.20    -20.68     20.00
    8.2041     27.20     27.22    -20.79     20.00
    8.2143     26.71     27.23    -21.29     20.00
    8.2244     28.02     27.24    -19.99     20.00
    8.2346     27.74     27.26    -20.29     20.00
    8.2448     27.01     27.27    -21.03     20.00
    8.2549     27.37     27.29    -20.69     20.00
    8.2651     27.83     27.30    -20.24     20.00
    8.2753     27.55     27.32    -20.54     20.00
    8.2854     26.65     27.33    -21.45     20.00
    8.2956     27.93     27.35    -20.19     20.00
    8.3058     26.72     27.36    -21.41     20.00
    8.3159     27.94     27.38    -20.21     20.00
    8.3261     26.90     27.39    -21.26     20.00
    8.3363     27.46     27.41    -20.72     20.00
    8.3464     27.30     27.42    -20.89     20.00
    8.3566     28.21     27.44    -20.00     20.00
    8.3667     26.90     27.45    -21.32     20.00
    8.3769     27.90     27.47    -20.34     20.00
    8.3871     28.20     27.49    -20.06     20.00
    8.3972     28.15     27.50    -20.12     20.00
    8.4074     27.84     27.52    -20.45     20.00
    8.4176     27.29     27.53    -21.01     20.00
    8.4277     27.47     27.55    -20.85     20.00
    8.4379     28.14     27.56    -20.19     20.00
    8.4481     27.33     27.58    -21.02     20.00
    8.4582     27.59     27.59    -20.77     20.00
    8.4684     28.27     27.61    -20.11     20.00
    8.4786     27.87     27.63    -20.53     20.00
    8.4887     27.37     27.64    -21.04     20.00
    8.4989     28.07     27.66    -20.36     20.00
    8.5091     28.37     27.68    -20.08     20.00
    8.5192     28.55     27.69    -19.91     20.00
    8.5294     28.65     27.71    -19.83     20.00
    8.5395     27.89     27.72    -20.60     20.00
    8.5497     27.52     27.74    -20.99     20.00
    8.5599     27.56     27.76    -20.97     20.00
    8.5700     28.44     27.77    -20.10     20.00
    8.5802     27.56     27.79    -21.00     20.00
    8.5904     28.56     27.81    -20.02     20.00
    8.6005     27.99     27.82    -20.60     20.00
    8.6107     27.81     27.84    -20.80     20.00
    8.6209     28.80     27.86    -19.83     20.00
    8.6310     28.29     27.87    -20.35     20.00
    8.6412     27.44     27.89    -21.22     20.00
    8.6514     28.85     27.91    -19.83     20.00
    8.6615     27.85     27.93    -20.85     20.00
    8.6717     28.47     27.94    -20.24     20.00
    8.6818     28.60     27.96    -20.13     20.00
    8.6920     28.65     27.98    -20.10     20.00
    8.7022     28.04     28.00    -20.73     20.00
    8.7123     29.10     28.01    -19.68     20.00
    8.7225     28.87     28.03    -19.93     20.00
    8.7327     27.98     28.05    -20.84     20.00
    8.7428     28.61     28.07    -20.23     20.00
    8.7530     29.41     28.08    -19.44     20.00
    8.7632     28.99     28.10    -19.88     20.00
    8.7733     29.30     28.12    -19.59     20.00
    8.7835     28.74     28.14    -20.17     20.00
    8.7937     29.45     28.16    -19.48     20.00
    8.8038     29.03     28.17    -19.91     20.00
    8.8140     29.10     28.19    -19.86     20.00
    8.8242     29.45     28.21    -19.53     20.00
    8.8343     28.98     28.23    -20.02     20.00
    8.8445     28.74     28.25    -20.28     20.00
    8.8546     28.47     28.27    -20.57     20.00
    8.8648     29.57     28.28    -19.48     20.00
    8.8750     29.39     28.30    -19.68     20.00
    8.8851     27.98     28.32    -21.11     20.00
    8.8953     29.46     28.34    -19.65     20.00
    8.9055     28.88     28.36    -20.25     20.00
    8.9156     29.28     28.38    -19.87     20.00
    8.9258     28.96     28.40    -20.21     20.00
    8.9360     29.35     28.42    -19.84     20.00
    8.9461     30.04     28.43    -19.16     20.00
    8.9563     29.51     28.45    -19.71     20.00
    8.9665     28.52     28.47    -20.72     20.00
    8.9766     29.70     28.49    -19.56     20.00
    8.9868     29.57     28.51    -19.71     20.00
    8.9969     29.09     28.53    -20.21     20.00
    9.0071     29.27     28.55    -20.05     20.00
    9.0173     29.37     28.57    -19.97     20.00
    9.0274     29.77     28.59    -19.59     20.00
    9.0376     29.64     28.61    -19.74     20.00
    9.0478     30.02     28.63    -19.38     20.00
    9.0579     29.64     28.65    -19.78     20.00
    9.0681     29.50     28.67    -19.94     20.00
    9.0783     29.34     28.69    -20.12     20.00
    9.0884     30.27     28.71    -19.21     20.00
    9.0986     30.35     28.73    -19.15     20.00
    9.1088     29.90     28.75    -19.62     20.00
    9.1189     29.55     28.77    -19.99     20.00
    9.1291     29.02     28.79    -20.54     20.00
    9.1393     29.43     28.81    -20.15     20.00
    9.1494     29.59     28.83    -20.01     20.00
    9.1596     29.07     28.86    -20.56     20.00
    9.1697     29.92     28.88    -19.73     20.00
    9.1799     29.37     28.90    -20.30     20.00
    9.1901     30.14     28.92    -19.55     20.00
    9.2002     29.87     28.94    -19.84     20.00
    9.2104     30.22     28.96    -19.51     20.00
    9.2206     29.70     28.98    -20.05     20.00
    9.2307     30.62     29.00    -19.15     20.00
    9.2409     30.46     29.03    -19.34     20.00
    9.2511     30.13     29.05    -19.69     20.00
    9.2612     29.72     29.07    -20.12     20.00
    9.2714     30.71     29.09    -19.15     20.00
    9.2816     30.29     29.11    -19.59     20.00
    9.2917     30.07     29.13    -19.83     20.00
    9.3019     30.34     29.16    -19.59     20.00
    9.3120     30.82     29.18    -19.13     20.00
    9.3222     31.30     29.20    -18.67     20.00
    9.3324     30.84     29.22    -19.15     20.00
    9.3425     30.04     29.25    -19.98     20.00
    9.3527     30.51     29.27    -19.53     20.00
    9.3629     31.54     29.29    -18.52     20.00
    9.3730     29.74     29.31    -20.34     20.00
    9.3832     31.48     29.34    -18.63     20.00
    9.3934     31.30     29.36    -18.83     20.00
    9.4035     30.55     29.38    -19.60     20.00
    9.4137     31.26     29.40    -18.91     20.00
    9.4239     29.87     29.43    -20.33     20.00
    9.4340     30.59     29.45    -19.63     20.00
    9.4442     31.30     29.47    -18.94     20.00
    9.4544     30.24     29.50    -20.03     20.00
    9.4645     30.60     29.52    -19.69     20.00
    9.4747     32.04     29.55    -18.28     20.00
    9.4848     31.76     29.57    -18.58     20.00
    9.4950     30.43     29.59    -19.93     20.00
    9.5052     30.85     29.62    -19.54     20.00
    9.5153     31.55     29.64    -18.86     20.00
    9.5255     30.09     29.66    -20.34     20.00
    9.5357     30.71     29.69    -19.75     20.00
    9.5458     31.76     29.71    -18.72     20.00
    9.5560     30.71     29.74    -19.80     20.00
    9.5662     31.11     29.76    -19.42     20.00
    9.5763     31.43     29.79    -19.13     20.00
    9.5865     31.01     29.81    -19.57     20.00
    9.5967     30.95     29.84    -19.66     20.00
    9.6068     30.74     29.86    -19.89     20.00
    9.6170     31.88     29.89    -18.78     20.00
    9.6271     30.52     29.91    -20.16     20.00
    9.6373     31.30     29.94    -19.41     20.00
    9.6475     31.13     29.96    -19.60     20.00
    9.6576     31.36     29.99    -19.40     20.00
    9.6678     32.20     30.01    -18.58     20.00
    9.6780     30.99     30.04    -19.82     20.00
    9.6881     31.46     30.06    -19.37     20.00
    9.6983     32.00     30.09    -18.86     20.00
    9.7085     30.95     30.12    -19.94     20.00
    9.7186     31.73     30.14    -19.18     20.00
    9.7288     31.43     30.17    -19.51     20.00
    9.7390     31.76     30.20    -19.21     20.00
    9.7491     31.65     30.22    -19.34     20.00
    9.7593     31.54     30.25    -19.48     20.00
    9.7694     31.10     30.27    -19.94     20.00
