 => TITLE: 
 => Data file name: C:\Users\stefano\Nextcloud2\uni\master-thesis\XRD\data\G306\G306--5-40-0.01-1000ms.xy
 => Instrm        :    1
 => Lambda(1&2)   :   1.54060  1.54060
 => Numb.of.points:      2951
 => Numb.of.peaks :         7
    2Theta     Yobs     Ycalc  Yobs-Ycal    Backg    Bragg     Posr  Intensity   FWHM    Eta
    6.0086     25.25     26.74    -22.38     20.00   18.6821      1.69     139.07  0.8016  0.7594
    6.0187     25.43     26.75    -22.21     20.00   20.6329      1.69      11.95  0.5330  0.7594
    6.0289     25.52     26.76    -22.13     20.00   22.5481      1.69      97.75  1.1427  0.7594
    6.0391     26.04     26.77    -21.62     20.00   28.4200      1.69      57.22  1.7124  0.7594
    6.0492     25.54     26.78    -22.13     20.00   29.9342      1.69      34.31  3.0657  0.7594
    6.0594     25.40     26.79    -22.28     20.00   33.3542      1.69      15.04  3.0657  0.7594
    6.0696     25.18     26.80    -22.51     20.00   19.5310      1.69    1277.00  8.4919  0.7594
    6.0797     25.71     26.81    -21.99     20.00
    6.0899     25.23     26.82    -22.47     20.00
    6.1001     25.56     26.83    -22.15     20.00
    6.1102     24.80     26.84    -22.92     20.00
    6.1204     25.03     26.85    -22.70     20.00
    6.1306     24.72     26.86    -23.02     20.00
    6.1407     24.52     26.87    -23.23     20.00
    6.1509     24.45     26.88    -23.31     20.00
    6.1611     25.06     26.89    -22.71     20.00
    6.1712     24.78     26.90    -23.00     20.00
    6.1814     24.64     26.91    -23.15     20.00
    6.1915     24.75     26.92    -23.05     20.00
    6.2017     24.69     26.93    -23.12     20.00
    6.2119     24.57     26.94    -23.25     20.00
    6.2220     24.85     26.95    -22.98     20.00
    6.2322     24.93     26.96    -22.91     20.00
    6.2424     24.97     26.97    -22.88     20.00
    6.2525     24.98     26.98    -22.88     20.00
    6.2627     25.32     26.99    -22.55     20.00
    6.2729     24.81     27.00    -23.07     20.00
    6.2830     24.98     27.01    -22.91     20.00
    6.2932     24.90     27.02    -23.00     20.00
    6.3034     25.61     27.03    -22.30     20.00
    6.3135     25.15     27.04    -22.77     20.00
    6.3237     25.25     27.05    -22.68     20.00
    6.3338     25.20     27.06    -22.74     20.00
    6.3440     24.96     27.07    -22.99     20.00
    6.3542     24.43     27.08    -23.53     20.00
    6.3643     24.52     27.09    -23.45     20.00
    6.3745     24.77     27.10    -23.21     20.00
    6.3847     24.45     27.11    -23.54     20.00
    6.3948     24.88     27.12    -23.13     20.00
    6.4050     25.68     27.13    -22.34     20.00
    6.4152     25.45     27.14    -22.58     20.00
    6.4253     25.08     27.15    -22.96     20.00
    6.4355     25.30     27.16    -22.75     20.00
    6.4457     25.20     27.17    -22.86     20.00
    6.4558     25.42     27.18    -22.65     20.00
    6.4660     25.67     27.19    -22.41     20.00
    6.4762     24.26     27.20    -23.83     20.00
    6.4863     25.96     27.22    -22.14     20.00
    6.4965     25.15     27.23    -22.96     20.00
    6.5066     24.84     27.24    -23.28     20.00
    6.5168     25.11     27.25    -23.02     20.00
    6.5270     25.23     27.26    -22.91     20.00
    6.5371     25.32     27.27    -22.83     20.00
    6.5473     25.12     27.28    -23.04     20.00
    6.5575     25.29     27.29    -22.88     20.00
    6.5676     25.65     27.30    -22.53     20.00
    6.5778     26.13     27.31    -22.07     20.00
    6.5880     25.62     27.32    -22.59     20.00
    6.5981     24.88     27.33    -23.34     20.00
    6.6083     24.88     27.34    -23.35     20.00
    6.6185     25.29     27.36    -22.95     20.00
    6.6286     25.53     27.37    -22.72     20.00
    6.6388     25.48     27.38    -22.78     20.00
    6.6489     25.83     27.39    -22.44     20.00
    6.6591     25.85     27.40    -22.43     20.00
    6.6693     25.63     27.41    -22.66     20.00
    6.6794     25.66     27.42    -22.65     20.00
    6.6896     25.10     27.43    -23.22     20.00
    6.6998     25.85     27.44    -22.48     20.00
    6.7099     26.42     27.45    -21.92     20.00
    6.7201     25.92     27.47    -22.43     20.00
    6.7303     25.74     27.48    -22.62     20.00
    6.7404     26.33     27.49    -22.04     20.00
    6.7506     25.13     27.50    -23.25     20.00
    6.7608     26.00     27.51    -22.39     20.00
    6.7709     25.67     27.52    -22.74     20.00
    6.7811     26.06     27.53    -22.36     20.00
    6.7913     25.65     27.54    -22.78     20.00
    6.8014     26.63     27.56    -21.81     20.00
    6.8116     26.95     27.57    -21.50     20.00
    6.8217     26.78     27.58    -21.68     20.00
    6.8319     25.88     27.59    -22.59     20.00
    6.8421     25.51     27.60    -22.98     20.00
    6.8522     25.88     27.61    -22.62     20.00
    6.8624     26.18     27.63    -22.33     20.00
    6.8726     26.06     27.64    -22.46     20.00
    6.8827     26.40     27.65    -22.13     20.00
    6.8929     26.20     27.66    -22.34     20.00
    6.9031     25.58     27.67    -22.98     20.00
    6.9132     25.68     27.68    -22.89     20.00
    6.9234     25.94     27.70    -22.64     20.00
    6.9336     26.11     27.71    -22.48     20.00
    6.9437     26.42     27.72    -22.18     20.00
    6.9539     25.93     27.73    -22.68     20.00
    6.9640     26.31     27.74    -22.32     20.00
    6.9742     26.63     27.75    -22.01     20.00
    6.9844     25.70     27.77    -22.95     20.00
    6.9945     26.74     27.78    -21.92     20.00
    7.0047     26.38     27.79    -22.29     20.00
    7.0149     26.62     27.80    -22.07     20.00
    7.0250     27.14     27.81    -21.56     20.00
    7.0352     25.87     27.83    -22.84     20.00
    7.0454     27.15     27.84    -21.57     20.00
    7.0555     25.88     27.85    -22.85     20.00
    7.0657     26.36     27.86    -22.39     20.00
    7.0759     26.18     27.88    -22.58     20.00
    7.0860     27.04     27.89    -21.73     20.00
    7.0962     26.65     27.90    -22.13     20.00
    7.1064     26.35     27.91    -22.45     20.00
    7.1165     26.59     27.92    -22.22     20.00
    7.1267     26.43     27.94    -22.39     20.00
    7.1368     26.59     27.95    -22.24     20.00
    7.1470     26.66     27.96    -22.19     20.00
    7.1572     27.40     27.97    -21.46     20.00
    7.1673     26.52     27.99    -22.35     20.00
    7.1775     26.72     28.00    -22.16     20.00
    7.1877     27.83     28.01    -21.07     20.00
    7.1978     27.37     28.02    -21.54     20.00
    7.2080     26.53     28.04    -22.39     20.00
    7.2182     27.26     28.05    -21.67     20.00
    7.2283     26.41     28.06    -22.54     20.00
    7.2385     27.19     28.07    -21.77     20.00
    7.2487     27.10     28.09    -21.87     20.00
    7.2588     27.36     28.10    -21.62     20.00
    7.2690     25.74     28.11    -23.26     20.00
    7.2791     27.24     28.13    -21.77     20.00
    7.2893     28.33     28.14    -20.69     20.00
    7.2995     27.25     28.15    -21.79     20.00
    7.3096     27.54     28.16    -21.51     20.00
    7.3198     27.76     28.18    -21.30     20.00
    7.3300     26.82     28.19    -22.25     20.00
    7.3401     27.49     28.20    -21.60     20.00
    7.3503     27.02     28.22    -22.08     20.00
    7.3605     27.25     28.23    -21.86     20.00
    7.3706     27.42     28.24    -21.71     20.00
    7.3808     27.60     28.26    -21.54     20.00
    7.3910     27.43     28.27    -21.72     20.00
    7.4011     27.91     28.28    -21.26     20.00
    7.4113     27.92     28.30    -21.26     20.00
    7.4215     26.86     28.31    -22.33     20.00
    7.4316     26.63     28.32    -22.58     20.00
    7.4418     26.87     28.34    -22.35     20.00
    7.4519     27.63     28.35    -21.60     20.00
    7.4621     27.63     28.36    -21.62     20.00
    7.4723     27.56     28.38    -21.70     20.00
    7.4824     27.77     28.39    -21.50     20.00
    7.4926     27.49     28.40    -21.80     20.00
    7.5028     27.93     28.42    -21.37     20.00
    7.5129     27.54     28.43    -21.78     20.00
    7.5231     26.72     28.45    -22.61     20.00
    7.5333     28.21     28.46    -21.13     20.00
    7.5434     27.85     28.47    -21.51     20.00
    7.5536     28.27     28.49    -21.10     20.00
    7.5638     27.95     28.50    -21.43     20.00
    7.5739     27.82     28.51    -21.58     20.00
    7.5841     28.48     28.53    -20.93     20.00
    7.5942     28.26     28.54    -21.17     20.00
    7.6044     27.82     28.56    -21.62     20.00
    7.6146     27.41     28.57    -22.04     20.00
    7.6247     28.29     28.58    -21.18     20.00
    7.6349     28.15     28.60    -21.33     20.00
    7.6451     27.97     28.61    -21.53     20.00
    7.6552     28.00     28.63    -21.51     20.00
    7.6654     27.99     28.64    -21.54     20.00
    7.6756     27.87     28.66    -21.67     20.00
    7.6857     28.01     28.67    -21.54     20.00
    7.6959     27.66     28.68    -21.91     20.00
    7.7061     28.13     28.70    -21.45     20.00
    7.7162     28.04     28.71    -21.56     20.00
    7.7264     27.57     28.73    -22.04     20.00
    7.7365     28.40     28.74    -21.23     20.00
    7.7467     28.52     28.76    -21.12     20.00
    7.7569     28.76     28.77    -20.90     20.00
    7.7670     28.81     28.79    -20.86     20.00
    7.7772     28.60     28.80    -21.09     20.00
    7.7874     27.07     28.82    -22.63     20.00
    7.7975     28.46     28.83    -21.25     20.00
    7.8077     29.41     28.85    -20.32     20.00
    7.8179     27.74     28.86    -22.00     20.00
    7.8280     28.16     28.88    -21.60     20.00
    7.8382     29.35     28.89    -20.42     20.00
    7.8484     28.12     28.91    -21.67     20.00
    7.8585     29.24     28.92    -20.56     20.00
    7.8687     29.69     28.94    -20.13     20.00
    7.8789     29.75     28.95    -20.08     20.00
    7.8890     29.44     28.97    -20.41     20.00
    7.8992     28.39     28.98    -21.48     20.00
    7.9093     29.11     29.00    -20.77     20.00
    7.9195     29.09     29.01    -20.81     20.00
    7.9297     29.43     29.03    -20.48     20.00
    7.9398     28.85     29.04    -21.08     20.00
    7.9500     29.39     29.06    -20.55     20.00
    7.9602     30.09     29.07    -19.87     20.00
    7.9703     28.89     29.09    -21.08     20.00
    7.9805     29.15     29.10    -20.84     20.00
    7.9907     29.05     29.12    -20.95     20.00
    8.0008     29.07     29.14    -20.95     20.00
    8.0110     29.20     29.15    -20.84     20.00
    8.0212     29.48     29.17    -20.57     20.00
    8.0313     28.82     29.18    -21.25     20.00
    8.0415     29.45     29.20    -20.63     20.00
    8.0516     29.87     29.22    -20.23     20.00
    8.0618     29.61     29.23    -20.51     20.00
    8.0720     29.45     29.25    -20.68     20.00
    8.0821     29.63     29.26    -20.52     20.00
    8.0923     29.19     29.28    -20.97     20.00
    8.1025     28.91     29.30    -21.27     20.00
    8.1126     29.43     29.31    -20.77     20.00
    8.1228     28.83     29.33    -21.38     20.00
    8.1330     30.39     29.34    -19.84     20.00
    8.1431     30.35     29.36    -19.89     20.00
    8.1533     30.18     29.38    -20.08     20.00
    8.1635     29.98     29.39    -20.30     20.00
    8.1736     30.66     29.41    -19.63     20.00
    8.1838     29.50     29.43    -20.81     20.00
    8.1940     30.12     29.44    -20.21     20.00
    8.2041     29.67     29.46    -20.67     20.00
    8.2143     28.83     29.48    -21.53     20.00
    8.2244     29.90     29.49    -20.48     20.00
    8.2346     29.29     29.51    -21.10     20.00
    8.2448     29.64     29.53    -20.77     20.00
    8.2549     30.41     29.54    -20.02     20.00
    8.2651     30.21     29.56    -20.23     20.00
    8.2753     30.15     29.58    -20.31     20.00
    8.2854     30.04     29.59    -20.44     20.00
    8.2956     30.10     29.61    -20.40     20.00
    8.3058     29.15     29.63    -21.36     20.00
    8.3159     30.39     29.65    -20.14     20.00
    8.3261     31.23     29.66    -19.32     20.00
    8.3363     30.60     29.68    -19.96     20.00
    8.3464     30.16     29.70    -20.42     20.00
    8.3566     30.94     29.72    -19.66     20.00
    8.3667     30.82     29.73    -19.80     20.00
    8.3769     30.54     29.75    -20.09     20.00
    8.3871     30.73     29.77    -19.92     20.00
    8.3972     29.95     29.79    -20.72     20.00
    8.4074     31.11     29.80    -19.58     20.00
    8.4176     30.95     29.82    -19.75     20.00
    8.4277     30.01     29.84    -20.71     20.00
    8.4379     30.10     29.86    -20.64     20.00
    8.4481     31.19     29.87    -19.57     20.00
    8.4582     29.66     29.89    -21.12     20.00
    8.4684     30.88     29.91    -19.91     20.00
    8.4786     31.30     29.93    -19.51     20.00
    8.4887     30.51     29.95    -20.32     20.00
    8.4989     31.41     29.96    -19.44     20.00
    8.5091     30.79     29.98    -20.08     20.00
    8.5192     30.40     30.00    -20.49     20.00
    8.5294     31.01     30.02    -19.89     20.00
    8.5395     31.09     30.04    -19.83     20.00
    8.5497     29.60     30.06    -21.34     20.00
    8.5599     31.32     30.07    -19.64     20.00
    8.5700     30.91     30.09    -20.07     20.00
    8.5802     30.46     30.11    -20.54     20.00
    8.5904     30.57     30.13    -20.44     20.00
    8.6005     31.45     30.15    -19.58     20.00
    8.6107     30.68     30.17    -20.37     20.00
    8.6209     31.29     30.19    -19.78     20.00
    8.6310     30.70     30.21    -20.39     20.00
    8.6412     30.61     30.23    -20.50     20.00
    8.6514     31.47     30.24    -19.66     20.00
    8.6615     31.46     30.26    -19.69     20.00
    8.6717     30.53     30.28    -20.64     20.00
    8.6818     31.74     30.30    -19.45     20.00
    8.6920     30.77     30.32    -20.44     20.00
    8.7022     30.79     30.34    -20.43     20.00
    8.7123     31.68     30.36    -19.56     20.00
    8.7225     32.27     30.38    -18.99     20.00
    8.7327     32.28     30.40    -19.00     20.00
    8.7428     31.55     30.42    -19.75     20.00
    8.7530     30.96     30.44    -20.36     20.00
    8.7632     31.14     30.46    -20.20     20.00
    8.7733     31.85     30.48    -19.51     20.00
    8.7835     31.88     30.50    -19.50     20.00
    8.7937     30.69     30.52    -20.71     20.00
    8.8038     32.29     30.54    -19.13     20.00
    8.8140     32.32     30.56    -19.12     20.00
    8.8242     31.88     30.58    -19.58     20.00
    8.8343     31.88     30.60    -19.60     20.00
    8.8445     32.10     30.62    -19.40     20.00
    8.8546     31.65     30.64    -19.87     20.00
    8.8648     31.63     30.66    -19.91     20.00
    8.8750     32.13     30.68    -19.43     20.00
    8.8851     32.31     30.70    -19.27     20.00
    8.8953     31.98     30.72    -19.62     20.00
    8.9055     32.36     30.74    -19.26     20.00
    8.9156     30.97     30.76    -20.68     20.00
    8.9258     31.32     30.78    -20.35     20.00
    8.9360     31.76     30.80    -19.93     20.00
    8.9461     31.74     30.82    -19.97     20.00
    8.9563     31.84     30.84    -19.89     20.00
    8.9665     31.72     30.87    -20.03     20.00
    8.9766     31.69     30.89    -20.08     20.00
    8.9868     32.22     30.91    -19.57     20.00
    8.9969     32.03     30.93    -19.78     20.00
    9.0071     31.32     30.95    -20.51     20.00
    9.0173     32.07     30.97    -19.79     20.00
    9.0274     31.86     30.99    -20.02     20.00
    9.0376     32.37     31.02    -19.53     20.00
    9.0478     32.85     31.04    -19.07     20.00
    9.0579     32.85     31.06    -19.09     20.00
    9.0681     32.27     31.08    -19.69     20.00
    9.0783     32.46     31.10    -19.53     20.00
    9.0884     31.68     31.12    -20.33     20.00
    9.0986     32.21     31.15    -19.82     20.00
    9.1088     31.98     31.17    -20.07     20.00
    9.1189     32.66     31.19    -19.41     20.00
    9.1291     32.77     31.21    -19.33     20.00
    9.1393     32.36     31.23    -19.76     20.00
    9.1494     32.83     31.26    -19.31     20.00
    9.1596     33.07     31.28    -19.09     20.00
    9.1697     32.39     31.30    -19.80     20.00
    9.1799     33.02     31.32    -19.19     20.00
    9.1901     32.60     31.35    -19.63     20.00
    9.2002     32.96     31.37    -19.29     20.00
    9.2104     32.38     31.39    -19.90     20.00
    9.2206     32.15     31.42    -20.15     20.00
    9.2307     32.97     31.44    -19.35     20.00
    9.2409     32.15     31.46    -20.20     20.00
    9.2511     32.52     31.48    -19.85     20.00
    9.2612     33.30     31.51    -19.09     20.00
    9.2714     32.98     31.53    -19.43     20.00
    9.2816     32.14     31.55    -20.30     20.00
    9.2917     33.85     31.58    -18.61     20.00
    9.3019     33.10     31.60    -19.38     20.00
    9.3120     32.62     31.62    -19.89     20.00
    9.3222     33.43     31.65    -19.10     20.00
    9.3324     32.98     31.67    -19.58     20.00
    9.3425     33.15     31.70    -19.43     20.00
    9.3527     32.77     31.72    -19.83     20.00
    9.3629     32.84     31.74    -19.79     20.00
    9.3730     32.99     31.77    -19.66     20.00
    9.3832     33.01     31.79    -19.67     20.00
    9.3934     33.53     31.82    -19.17     20.00
    9.4035     33.44     31.84    -19.28     20.00
    9.4137     32.82     31.86    -19.93     20.00
    9.4239     34.34     31.89    -18.43     20.00
    9.4340     33.64     31.91    -19.16     20.00
    9.4442     33.32     31.94    -19.50     20.00
    9.4544     33.19     31.96    -19.66     20.00
    9.4645     33.40     31.99    -19.47     20.00
    9.4747     33.95     32.01    -18.95     20.00
    9.4848     32.77     32.04    -20.15     20.00
    9.4950     33.29     32.06    -19.66     20.00
    9.5052     33.59     32.09    -19.38     20.00
    9.5153     33.91     32.11    -19.09     20.00
    9.5255     33.52     32.14    -19.50     20.00
    9.5357     33.69     32.16    -19.36     20.00
    9.5458     33.66     32.19    -19.41     20.00
    9.5560     33.34     32.21    -19.76     20.00
    9.5662     33.27     32.24    -19.85     20.00
    9.5763     33.74     32.27    -19.41     20.00
    9.5865     33.16     32.29    -20.02     20.00
    9.5967     34.74     32.32    -18.46     20.00
    9.6068     34.18     32.34    -19.05     20.00
    9.6170     33.21     32.37    -20.04     20.00
    9.6271     33.24     32.40    -20.04     20.00
    9.6373     34.26     32.42    -19.05     20.00
    9.6475     33.52     32.45    -19.81     20.00
    9.6576     33.35     32.47    -20.01     20.00
    9.6678     33.95     32.50    -19.43     20.00
    9.6780     33.68     32.53    -19.73     20.00
    9.6881     33.62     32.55    -19.82     20.00
    9.6983     34.60     32.58    -18.86     20.00
    9.7085     33.91     32.61    -19.58     20.00
    9.7186     33.85     32.63    -19.67     20.00
    9.7288     33.85     32.66    -19.70     20.00
    9.7390     34.15     32.69    -19.42     20.00
    9.7491     34.84     32.72    -18.76     20.00
    9.7593     33.73     32.74    -19.90     20.00
    9.7694     34.27     32.77    -19.39     20.00
